SpectraSuite Data File
++++++++++++++++++++++++++++++++++++
Date: Fri Oct 04 11:44:14 GMT-05:00 2013
User: price-jones
Dark Spectrum Present: No
Reference Spectrum Present: No
Number of Sampled Component Spectra: 1
Spectrometers: USB2+H05261
Integration Time (usec): 100000 (USB2+H05261)
Spectra Averaged: 1 (USB2+H05261)
Boxcar Smoothing: 0 (USB2+H05261)
Correct for Electrical Dark: No (USB2+H05261)
Strobe/Lamp Enabled: No (USB2+H05261)
Correct for Detector Non-linearity: No (USB2+H05261)
Correct for Stray Light: No (USB2+H05261)
Number of Pixels in Processed Spectrum: 2048
>>>>>Begin Processed Spectral Data<<<<<
365.73	0.00
365.92	0.00
366.12	0.00
366.32	4.68
366.52	0.00
366.72	0.00
366.91	0.00
367.11	0.00
367.31	0.00
367.51	0.00
367.70	0.00
367.90	0.00
368.10	0.00
368.30	0.00
368.49	0.00
368.69	0.00
368.89	0.00
369.09	0.00
369.28	0.00
369.48	0.00
369.68	0.00
369.87	0.00
370.07	0.00
370.27	58.51
370.47	154.48
370.66	603.86
370.86	723.23
371.06	758.33
371.25	753.65
371.45	704.50
371.65	557.05
371.84	540.66
372.04	711.52
372.24	699.82
372.44	695.14
372.63	777.06
372.83	730.25
373.03	643.65
373.22	615.56
373.42	653.01
373.62	683.44
373.81	767.70
374.01	713.86
374.21	669.39
374.40	685.78
374.60	760.67
374.79	793.44
374.99	800.46
375.19	933.87
375.38	926.85
375.58	912.81
375.78	868.34
375.97	858.98
376.17	847.27
376.37	877.70
376.56	905.79
376.76	931.53
376.95	959.62
377.15	1034.52
377.35	1095.37
377.54	1050.90
377.74	1149.20
377.93	1217.08
378.13	1231.12
378.33	1139.84
378.52	990.05
378.72	959.62
378.91	987.71
379.11	924.51
379.31	873.02
379.50	908.13
379.70	973.66
379.89	1078.99
380.09	1050.90
380.28	1128.14
380.48	1083.67
380.68	1165.59
380.87	1067.28
381.07	1032.18
381.26	966.64
381.46	952.60
381.65	903.45
381.85	851.96
382.04	784.08
382.24	770.04
382.43	753.65
382.63	758.33
382.83	760.67
383.02	746.63
383.22	725.57
383.41	723.23
383.61	781.74
383.80	830.89
384.00	933.87
384.19	1132.82
384.39	1125.80
384.58	1181.97
384.78	1104.73
384.97	1130.48
385.17	1020.47
385.36	957.28
385.56	994.73
385.75	983.02
385.95	1036.86
386.14	1130.48
386.34	1097.71
386.53	1144.52
386.72	954.94
386.92	1071.97
387.11	1078.99
387.31	1174.95
387.50	1090.69
387.70	1020.47
387.89	1043.88
388.09	1067.28
388.28	1078.99
388.48	1158.57
388.67	1219.42
388.86	1259.21
389.06	1345.81
389.25	1481.56
389.45	1390.28
389.64	1394.96
389.84	1472.20
390.03	1341.13
390.22	1385.60
390.42	1404.32
390.61	1448.79
390.81	1565.82
391.00	1526.03
391.19	1659.44
391.39	1591.56
391.58	1472.20
391.78	1430.07
391.97	1469.86
392.16	1226.44
392.36	1205.38
392.55	1088.35
392.75	819.19
392.94	699.82
393.13	746.63
393.33	751.31
393.52	968.98
393.71	1139.84
393.91	1322.40
394.10	1369.21
394.29	1420.71
394.49	1519.01
394.68	1715.61
394.88	1689.87
395.07	1785.83
395.26	1769.44
395.46	1614.97
395.65	1554.12
395.84	1341.13
396.04	1317.72
396.23	1025.15
396.42	873.02
396.62	950.26
396.81	971.32
397.00	1214.74
397.19	1481.56
397.39	1629.01
397.58	1832.64
397.77	2008.18
397.97	2125.21
398.16	2092.44
398.35	2069.03
398.55	2118.18
398.74	2314.79
398.93	2406.07
399.12	2209.47
399.32	2228.19
399.51	2275.00
399.70	2335.85
399.90	2333.51
400.09	2464.58
400.28	2363.94
400.47	2319.47
400.67	2448.20
400.86	2492.67
401.05	2462.24
401.24	2424.80
401.44	2572.25
401.63	2633.10
401.82	2637.78
402.01	2502.03
402.21	2583.95
402.40	2651.83
402.59	2558.21
402.78	2471.61
402.97	2291.38
403.17	2464.58
403.36	2628.42
403.55	2502.03
403.74	2808.64
403.93	2649.49
404.13	2569.91
404.32	2562.89
404.51	2502.03
404.70	2686.94
404.89	2583.95
405.09	2607.36
405.28	2590.97
405.47	2518.42
405.66	2459.90
405.85	2394.37
406.05	2382.67
406.24	2431.82
406.43	2490.33
406.62	2628.42
406.81	2637.78
407.00	2647.15
407.20	2464.58
407.39	2497.35
407.58	2569.91
407.77	2574.59
407.96	2778.22
408.15	2778.22
408.34	2839.07
408.54	2925.67
408.73	2883.54
408.92	2953.76
409.11	2867.16
409.30	2799.28
409.49	2637.78
409.68	2525.44
409.87	2396.71
410.07	2438.84
410.26	2630.76
410.45	2764.17
410.64	2754.81
410.83	2918.65
411.02	2869.50
411.21	3026.31
411.40	3080.14
411.59	3108.23
411.78	3033.33
411.98	2998.23
412.17	3019.29
412.36	2928.01
412.55	3028.65
412.74	3138.66
412.93	2904.60
413.12	2881.20
413.31	3243.98
413.50	3236.96
413.69	3126.96
413.88	3229.94
414.07	3094.19
414.26	3063.76
414.45	3192.49
414.64	3194.83
414.83	3218.24
415.02	3038.02
415.22	3145.68
415.41	3201.85
415.60	3318.88
415.79	3379.73
415.98	3555.27
416.17	3433.57
416.36	3454.63
416.55	3311.86
416.74	3344.63
416.93	3138.66
417.12	3243.98
417.31	3344.63
417.50	3258.03
417.69	3433.57
417.88	3321.22
418.07	3258.03
418.26	3262.71
418.45	3218.24
418.64	3527.19
418.83	3492.08
419.02	3442.93
419.21	3421.86
419.39	3316.54
419.58	3206.53
419.77	3110.57
419.96	3323.56
420.15	3435.91
420.34	3482.72
420.53	3623.15
420.72	3700.39
420.91	3723.79
421.10	3595.06
421.29	3620.81
421.48	3513.14
421.67	3740.18
421.86	3655.92
422.05	3482.72
422.24	3082.49
422.43	3014.61
422.61	3253.34
422.80	3419.52
422.99	3667.62
423.18	3461.65
423.37	3351.65
423.56	3398.46
423.75	3452.29
423.94	3330.58
424.13	3267.39
424.32	3449.95
424.50	3353.99
424.69	3428.88
424.88	3344.63
425.07	3297.81
425.26	3337.60
425.45	3229.94
425.64	3262.71
425.83	3073.12
426.01	3379.73
426.20	3449.95
426.39	3438.25
426.58	3215.90
426.77	3176.11
426.96	2913.97
427.15	3016.95
427.33	3133.98
427.52	3328.24
427.71	3407.82
427.90	3337.60
428.09	3222.92
428.28	3122.27
428.46	3126.96
428.65	3183.13
428.84	3054.40
429.03	3199.51
429.22	3077.80
429.40	3038.02
429.59	2677.57
429.78	2471.61
429.97	2389.69
430.16	2532.46
430.34	2436.50
430.53	2497.35
430.72	2516.08
430.91	2672.89
431.10	2984.18
431.28	3508.46
431.47	3904.01
431.66	3899.33
431.85	3527.19
432.03	3339.94
432.22	3225.26
432.41	3346.97
432.60	3658.26
432.79	3679.32
432.97	3885.29
433.16	3782.31
433.35	3576.34
433.54	3232.28
433.72	2920.99
433.91	2972.48
434.10	3377.39
434.28	3648.90
434.47	3885.29
434.66	3754.22
434.85	3723.79
435.03	3808.05
435.22	4227.01
435.41	5060.24
435.59	4851.93
435.78	4706.82
435.97	4451.70
436.16	4252.75
436.34	4035.08
436.53	4058.49
436.72	4049.13
436.90	3805.71
437.09	3822.09
437.28	3740.18
437.46	3908.69
437.65	3796.35
437.84	3791.67
438.02	3396.12
438.21	3440.59
438.40	3400.80
438.58	3775.28
438.77	3880.61
438.96	3983.59
439.14	4093.60
439.33	4098.28
439.52	4051.47
439.70	3988.27
439.89	3969.55
440.08	3908.69
440.26	3861.88
440.45	3864.22
440.63	4063.17
440.82	4301.90
441.01	4374.46
441.19	4297.22
441.38	4505.53
441.57	4454.04
441.75	4512.55
441.94	4669.37
442.12	4613.20
442.31	4713.84
442.50	4582.77
442.68	4723.20
442.87	4498.51
443.05	4531.28
443.24	4477.44
443.43	4713.84
443.61	4826.18
443.80	4690.43
443.98	4554.68
444.17	4407.23
444.35	4833.21
444.54	4753.63
444.73	4826.18
444.91	4573.41
445.10	4498.51
445.28	4339.35
445.47	4205.94
445.65	4236.37
445.84	4348.72
446.02	4386.16
446.21	4578.09
446.39	4477.44
446.58	4650.64
446.77	4561.70
446.95	4568.73
447.14	4880.02
447.32	4901.08
447.51	4816.82
447.69	4624.90
447.88	4770.01
448.06	4702.14
448.25	4662.35
448.43	4830.87
448.62	4573.41
448.80	4681.07
448.99	4786.40
449.17	4657.67
449.36	4655.33
449.54	4917.47
449.73	5025.13
449.91	5132.79
450.10	5301.31
450.28	5231.10
450.46	5313.02
450.65	5231.10
450.83	5046.20
451.02	5205.35
451.20	5135.14
451.39	5034.49
451.57	4940.87
451.76	4929.17
451.94	4908.10
452.13	4889.38
452.31	4620.22
452.49	4517.23
452.68	4587.45
452.86	4573.41
453.05	4627.24
453.23	4713.84
453.42	4933.85
453.60	5041.51
453.78	4765.33
453.97	4898.74
454.15	4945.55
454.34	4779.37
454.52	4786.40
454.70	4788.74
454.89	4746.61
455.07	4784.06
455.26	4837.89
455.44	5039.17
455.62	5036.83
455.81	5118.75
455.99	4999.38
456.17	4997.04
456.36	5074.28
456.54	5032.15
456.73	5177.26
456.91	5331.74
457.09	5284.93
457.28	5394.93
457.46	5118.75
457.64	5172.58
457.83	5071.94
458.01	4748.95
458.19	5083.64
458.38	4868.31
458.56	5165.56
458.74	5240.46
458.93	5081.30
459.11	5181.95
459.29	5055.56
459.48	5104.71
459.66	5104.71
459.84	5111.73
460.03	5270.89
460.21	5191.31
460.39	5308.34
460.57	5313.02
460.76	5565.79
460.94	5263.86
461.12	5245.14
461.31	5322.38
461.49	5343.44
461.67	5275.57
461.85	5394.93
462.04	5472.17
462.22	5942.62
462.40	5563.45
462.59	5537.71
462.77	5439.40
462.95	5423.02
463.13	5404.30
463.32	5380.89
463.50	5228.76
463.68	5280.25
463.86	5329.40
464.05	5198.33
464.23	5125.77
464.41	5165.56
464.59	5123.43
464.78	5282.59
464.96	5235.78
465.14	5341.10
465.32	5359.83
465.50	5324.72
465.69	5497.92
465.87	5327.06
466.05	5301.31
466.23	5132.79
466.41	4945.55
466.60	5137.48
466.78	5172.58
466.96	5057.90
467.14	5231.10
467.32	5341.10
467.51	5156.20
467.69	4968.96
467.87	5228.76
468.05	5322.38
468.23	5219.39
468.41	5191.31
468.60	5406.64
468.78	5404.30
468.96	5376.21
469.14	5252.16
469.32	5528.35
469.50	5006.41
469.69	5369.19
469.87	5097.69
470.05	5111.73
470.23	5181.95
470.41	5022.79
470.59	5102.37
470.77	5123.43
470.95	5245.14
471.14	5226.42
471.32	5291.95
471.50	5624.31
471.68	5666.44
471.86	5495.58
472.04	5689.84
472.22	5657.07
472.40	5451.11
472.58	5446.43
472.77	5329.40
472.95	5399.62
473.13	5678.14
473.31	5376.21
473.49	5467.49
473.67	5467.49
473.85	5589.20
474.03	5797.51
474.21	5816.23
474.39	5795.17
474.57	5851.34
474.75	5631.33
474.93	5636.01
475.12	5757.72
475.30	5610.26
475.48	5572.82
475.66	5720.27
475.84	5540.05
476.02	5666.44
476.20	5530.69
476.38	5600.90
476.56	5827.93
476.74	5968.37
476.92	6015.18
477.10	6094.76
477.28	6012.84
477.46	6071.35
477.64	6321.79
477.82	6181.35
478.00	6401.37
478.18	6162.63
478.36	6164.97
478.54	6211.78
478.72	6230.51
478.90	6408.39
479.08	6466.90
479.26	6604.99
479.44	6534.78
479.62	6567.54
479.80	6698.61
479.98	6686.91
480.16	6609.67
480.34	6642.44
480.52	6586.27
480.70	6761.81
480.88	6630.74
481.06	6843.73
481.24	6993.52
481.41	7023.95
481.59	7129.27
481.77	7080.12
481.95	7021.61
482.13	6965.43
482.31	6937.35
482.49	7253.32
482.67	7089.48
482.85	7180.76
483.03	7335.24
483.21	7417.16
483.39	7297.79
483.57	7253.32
483.74	7077.78
483.92	7199.49
484.10	7138.63
484.28	7625.47
484.46	7487.37
484.64	7524.82
484.82	7227.57
485.00	7459.29
485.18	7091.82
485.35	6974.80
485.53	6703.29
485.71	5975.39
485.89	5816.23
486.07	6120.50
486.25	6565.20
486.43	6991.18
486.61	7042.67
486.78	7166.72
486.96	7248.64
487.14	7187.79
487.32	7494.40
487.50	7611.42
487.68	7925.05
487.85	8208.26
488.03	8210.60
488.21	8016.33
488.39	7990.59
488.57	7815.05
488.75	7651.21
488.92	8074.85
489.10	8402.52
489.28	8781.69
489.46	8868.29
489.64	8842.54
489.81	8985.32
489.99	8795.73
490.17	8758.28
490.35	9144.47
490.53	8837.86
490.70	8723.18
490.88	8777.01
491.06	8903.40
491.24	8922.12
491.41	8549.98
491.59	8344.01
491.77	8121.66
491.95	8250.39
492.13	8437.63
492.30	8908.08
492.48	9029.79
492.66	9334.06
492.84	9165.54
493.01	9376.19
493.19	9142.13
493.37	8823.82
493.54	9083.62
493.72	9165.54
493.90	9394.91
494.08	9614.92
494.25	9783.44
494.43	9792.80
494.61	9975.36
494.79	9860.68
494.96	9830.25
495.14	9827.91
495.32	9472.15
495.49	9263.84
495.67	9523.64
495.85	9989.41
496.02	10181.33
496.20	10188.35
496.38	9743.65
496.55	10043.24
496.73	10036.22
496.91	10143.88
497.09	10333.47
497.26	10218.78
497.44	10139.20
497.62	9973.02
497.79	9816.21
497.97	9359.80
498.14	9383.21
498.32	9738.97
498.50	9923.87
498.67	10286.65
498.85	9970.68
499.03	10291.34
499.20	10335.81
499.38	10277.29
499.56	10274.95
499.73	10225.80
499.91	9760.03
500.08	9799.82
500.26	9507.26
500.44	9767.06
500.61	9984.73
500.79	9769.40
500.97	9661.73
501.14	9584.49
501.32	9446.40
501.49	9418.32
501.67	9694.50
501.84	9731.95
502.02	9717.90
502.20	9909.83
502.37	9848.97
502.55	9912.17
502.72	10092.39
502.90	10174.31
503.07	10221.12
503.25	9863.02
503.43	9603.22
503.60	9270.86
503.78	8971.27
503.95	9256.82
504.13	9558.75
504.30	10176.65
504.48	10232.82
504.65	10237.50
504.83	10216.44
505.01	10338.15
505.18	10373.25
505.36	10588.58
505.53	10614.33
505.71	10665.82
505.88	10754.76
506.06	10509.01
506.23	10328.78
506.41	10186.01
506.58	10237.50
506.76	10279.63
506.93	10335.81
507.11	10279.63
507.28	10190.69
507.46	9991.75
507.63	9612.58
507.81	9816.21
507.98	9781.10
508.16	10150.90
508.33	10188.35
508.50	10356.87
508.68	10885.83
508.85	10857.75
509.03	10836.68
509.20	11117.54
509.38	10595.61
509.55	10387.30
509.73	10413.04
509.90	10511.35
510.08	10773.49
510.25	10724.33
510.42	10443.47
510.60	10532.41
510.77	10595.61
510.95	10813.28
511.12	10836.68
511.30	11098.82
511.47	11194.78
511.64	11403.09
511.82	11110.52
511.99	10995.84
512.17	10541.77
512.34	10164.95
512.51	10597.95
512.69	10712.63
512.86	10651.78
513.04	10733.70
513.21	10920.94
513.38	10633.05
513.56	10553.48
513.73	10146.22
513.90	10335.81
514.08	10389.64
514.25	10497.30
514.43	10324.10
514.60	10672.84
514.77	10635.39
514.95	10541.77
515.12	10539.43
515.29	10574.54
515.47	10834.34
515.64	11068.39
515.81	10752.42
515.99	10553.48
516.16	10270.27
516.33	9516.62
516.51	8870.63
516.68	8683.39
516.85	8318.26
517.03	8566.36
517.20	9123.41
517.37	9973.02
517.54	10815.62
517.72	10445.81
517.89	9495.55
518.06	9036.81
518.24	9137.45
518.41	9682.80
518.58	10078.35
518.75	10106.43
518.93	10298.36
519.10	10169.63
519.27	10569.86
519.45	10427.09
519.62	10738.38
519.79	10916.26
519.96	10977.11
520.14	10682.20
520.31	10633.05
520.48	10333.47
520.65	10537.09
520.83	10689.23
521.00	11136.27
521.17	10864.77
521.34	10853.06
521.52	11147.97
521.69	11190.10
521.86	11435.86
522.03	11192.44
522.20	10677.52
522.38	10178.99
522.55	10200.05
522.72	10387.30
522.89	10691.57
523.07	10516.03
523.24	10590.92
523.41	10832.00
523.58	11115.20
523.75	11363.30
523.92	11337.56
524.10	11375.00
524.27	11021.58
524.44	11290.74
524.61	11342.24
524.78	11023.92
524.96	10991.16
525.13	10724.33
525.30	11044.99
525.47	11173.72
525.64	11379.68
525.81	11019.24
525.98	10473.90
526.16	9975.36
526.33	9902.81
526.50	9481.51
526.67	9458.10
526.84	9343.42
527.01	9863.02
527.18	10001.11
527.36	10427.09
527.53	10785.19
527.70	11215.85
527.87	10773.49
528.04	10558.16
528.21	10820.30
528.38	11047.33
528.55	11433.52
528.72	11749.49
528.89	11529.48
529.07	11410.11
529.24	11164.36
529.41	11019.24
529.58	10729.02
529.75	10822.64
529.92	10696.25
530.09	11084.78
530.26	11110.52
530.43	11162.01
530.60	11269.68
530.77	11442.88
530.94	11571.61
531.11	11506.07
531.28	11232.23
531.46	11201.80
531.63	11218.19
531.80	10988.82
531.97	11403.09
532.14	10850.72
532.31	10429.43
532.48	10139.20
532.65	10052.60
532.82	10181.33
532.99	10801.57
533.16	11145.63
533.33	11323.51
533.50	11192.44
533.67	10862.43
533.84	10534.75
534.01	10855.40
534.18	10951.37
534.35	11154.99
534.52	10949.03
534.69	10986.47
534.86	11061.37
535.03	11213.51
535.20	11351.60
535.37	11569.27
535.54	11494.37
535.71	11342.24
535.88	11447.56
536.05	10949.03
536.22	10892.85
536.38	10913.92
536.55	10450.49
536.72	10347.51
536.89	10281.97
537.06	10712.63
537.23	10857.75
537.40	11054.35
537.57	11103.50
537.74	11101.16
537.91	11194.78
538.08	11213.51
538.25	11119.89
538.42	11030.94
538.59	11112.86
538.75	10700.93
538.92	10693.91
539.09	10743.06
539.26	10801.57
539.43	10656.46
539.60	10642.42
539.77	10757.10
539.94	10864.77
540.11	10572.20
540.28	10384.96
540.44	10415.38
540.61	10532.41
540.78	10471.56
540.95	10560.50
541.12	11267.34
541.29	11115.20
541.46	11403.09
541.62	11522.46
541.79	11515.44
541.96	11143.29
542.13	10991.16
542.30	11087.12
542.47	11222.87
542.63	11122.23
542.80	10932.64
542.97	11136.27
543.14	10764.12
543.31	10881.15
543.48	11115.20
543.64	11365.64
543.81	11393.73
543.98	11506.07
544.15	11372.66
544.32	11152.65
544.48	10724.33
544.65	11192.44
544.82	11262.66
544.99	11442.88
545.16	10965.41
545.32	11080.10
545.49	11990.56
545.66	12688.04
545.83	12898.69
546.00	12769.96
546.16	11508.41
546.33	11386.71
546.50	11122.23
546.67	11192.44
546.83	11234.57
547.00	11014.56
547.17	11054.35
547.34	10565.18
547.50	10562.84
547.67	10597.95
547.84	10527.73
548.00	10707.95
548.17	10920.94
548.34	10995.84
548.51	10778.17
548.67	11026.26
548.84	11218.19
549.01	11089.46
549.18	10991.16
549.34	10766.46
549.51	11054.35
549.68	10920.94
549.84	10670.50
550.01	10693.91
550.18	10869.45
550.34	10780.51
550.51	10483.26
550.68	10850.72
550.84	10492.62
551.01	10504.32
551.18	10478.58
551.34	10438.79
551.51	10719.65
551.68	10827.32
551.84	10801.57
552.01	10750.08
552.18	10672.84
552.34	10310.06
552.51	10291.34
552.68	10244.52
552.84	10349.85
553.01	10452.83
553.18	10445.81
553.34	10443.47
553.51	10565.18
553.67	10707.95
553.84	10710.29
554.01	10532.41
554.17	10551.14
554.34	10469.22
554.51	10551.14
554.67	10473.90
554.84	10700.93
555.00	10511.35
555.17	10452.83
555.33	10382.62
555.50	10499.64
555.67	10274.95
555.83	10237.50
556.00	10396.66
556.16	10281.97
556.33	10242.18
556.50	9996.43
556.66	10068.98
556.83	9919.19
556.99	10017.49
557.16	10108.77
557.32	10183.67
557.49	9970.68
557.65	9996.43
557.82	10036.22
557.98	10258.57
558.15	10024.51
558.32	9614.92
558.48	9383.21
558.65	9378.53
558.81	9596.20
558.98	9465.13
559.14	9727.27
559.31	9745.99
559.47	9825.57
559.64	9743.65
559.80	9685.14
559.97	9509.60
560.13	9582.15
560.30	9888.76
560.46	10080.69
560.63	10183.67
560.79	10382.62
560.96	10321.76
561.12	9837.27
561.29	9502.58
561.45	9399.59
561.61	9619.60
561.78	9987.07
561.94	9982.38
562.11	9708.54
562.27	9542.36
562.44	9778.76
562.60	9790.46
562.77	10031.54
562.93	9863.02
563.10	10214.10
563.26	9720.24
563.42	9834.93
563.59	9785.78
563.75	9652.37
563.92	9699.18
564.08	9692.16
564.24	9591.52
564.41	9783.44
564.57	9879.40
564.74	9657.05
564.90	9715.56
565.07	9760.03
565.23	9446.40
565.39	9549.39
565.56	9418.32
565.72	9177.24
565.88	9153.84
566.05	9200.65
566.21	9224.05
566.38	9490.87
566.54	9390.23
566.70	9408.95
566.87	9603.22
567.03	9458.10
567.19	9605.56
567.36	9586.83
567.52	9378.53
567.68	9434.70
567.85	9163.20
568.01	8961.91
568.17	8821.48
568.34	8564.02
568.50	8784.03
568.66	8861.27
568.83	8894.04
568.99	8826.16
569.15	8966.59
569.32	9011.06
569.48	8784.03
569.64	8786.37
569.81	8636.58
569.97	8695.09
570.13	8966.59
570.30	8704.45
570.46	8650.62
570.62	8306.56
570.78	8486.78
570.95	8606.15
571.11	8631.90
571.27	8816.80
571.43	8795.73
571.60	8805.10
571.76	8772.33
571.92	8915.10
572.09	8922.12
572.25	8926.80
572.41	8905.74
572.57	8788.71
572.74	8779.35
572.90	8772.33
573.06	8795.73
573.22	8807.44
573.38	9060.21
573.55	8711.47
573.71	8837.86
573.87	8933.82
574.03	8671.68
574.20	8606.15
574.36	8809.78
574.52	8538.27
574.68	8746.58
574.84	8514.87
575.01	8390.82
575.17	8299.54
575.33	8442.31
575.49	8482.10
575.65	8439.97
575.82	8643.60
575.98	8402.52
576.14	8477.42
576.30	8697.43
576.46	9092.98
576.62	9039.15
576.79	8980.64
576.95	8828.50
577.11	8533.59
577.27	8432.95
577.43	8720.84
577.59	8613.17
577.75	8496.14
577.92	8184.85
578.08	8084.21
578.24	8156.77
578.40	8390.82
578.56	8674.03
578.72	8835.52
578.88	8613.17
579.04	8617.85
579.21	8627.21
579.37	8720.84
579.53	8564.02
579.69	8573.38
579.85	8732.54
580.01	8854.25
580.17	8725.52
580.33	8746.58
580.49	8786.37
580.65	8704.45
580.82	8657.64
580.98	8622.53
581.14	8723.18
581.30	8727.86
581.46	8589.77
581.62	8655.30
581.78	8667.00
581.94	8938.51
582.10	8795.73
582.26	8793.39
582.42	8849.57
582.58	8788.71
582.74	8730.20
582.90	8772.33
583.06	8657.64
583.22	8755.94
583.38	8741.90
583.54	8772.33
583.70	8662.32
583.86	8645.94
584.02	8809.78
584.18	8748.92
584.34	8777.01
584.50	8533.59
584.66	8636.58
584.82	8526.57
584.98	8552.32
585.14	8348.69
585.30	8472.74
585.46	8430.61
585.62	8053.78
585.78	8107.62
585.94	8135.70
586.10	8210.60
586.26	8304.22
586.42	8383.80
586.58	8468.06
586.74	8439.97
586.90	8304.22
587.06	8358.05
587.22	8140.38
587.38	8030.38
587.54	8079.53
587.70	7735.47
587.86	7384.39
588.02	7262.68
588.18	7220.55
588.34	7080.12
588.49	6480.94
588.65	6132.20
588.81	5898.15
588.97	5930.92
589.13	5991.77
589.29	6057.31
589.45	5860.70
589.61	6202.42
589.77	6387.32
589.93	6506.69
590.08	6647.12
590.24	6932.67
590.40	7220.55
590.56	6974.80
590.72	6829.68
590.88	6967.77
591.04	6939.69
591.20	6967.77
591.35	6843.73
591.51	6581.59
591.67	6537.12
591.83	6553.50
591.99	6466.90
592.15	6850.75
592.31	6817.98
592.46	7297.79
592.62	7241.62
592.78	7145.66
592.94	7323.54
593.10	7344.60
593.26	7227.57
593.41	7410.14
593.57	7304.81
593.73	7073.10
593.89	6635.42
