SpectraSuite Data File
++++++++++++++++++++++++++++++++++++
Date: Fri Oct 04 11:44:15 GMT-05:00 2013
User: price-jones
Dark Spectrum Present: No
Reference Spectrum Present: No
Number of Sampled Component Spectra: 1
Spectrometers: USB2+H05261
Integration Time (usec): 100000 (USB2+H05261)
Spectra Averaged: 1 (USB2+H05261)
Boxcar Smoothing: 0 (USB2+H05261)
Correct for Electrical Dark: No (USB2+H05261)
Strobe/Lamp Enabled: No (USB2+H05261)
Correct for Detector Non-linearity: No (USB2+H05261)
Correct for Stray Light: No (USB2+H05261)
Number of Pixels in Processed Spectrum: 2048
>>>>>Begin Processed Spectral Data<<<<<
365.73	44.47
365.92	44.47
366.12	44.47
366.32	0.00
366.52	0.00
366.72	0.00
366.91	0.00
367.11	0.00
367.31	0.00
367.51	0.00
367.70	0.00
367.90	0.00
368.10	0.00
368.30	0.00
368.49	0.00
368.69	0.00
368.89	11.70
369.09	0.00
369.28	0.00
369.48	0.00
369.68	0.00
369.87	16.38
370.07	21.06
370.27	0.00
370.47	217.67
370.66	543.00
370.86	667.05
371.06	802.80
371.25	753.65
371.45	765.36
371.65	634.29
371.84	587.47
372.04	657.69
372.24	746.63
372.44	779.40
372.63	753.65
372.83	727.91
373.03	725.57
373.22	655.35
373.42	550.03
373.62	737.27
373.81	802.80
374.01	751.31
374.21	781.74
374.40	620.24
374.60	664.71
374.79	690.46
374.99	873.02
375.19	880.04
375.38	828.55
375.58	807.48
375.78	856.64
375.97	877.70
376.17	861.32
376.37	861.32
376.56	866.00
376.76	994.73
376.95	891.74
377.15	1013.45
377.35	1114.10
377.54	1060.26
377.74	1118.78
377.93	1057.92
378.13	1135.16
378.33	1071.97
378.52	1095.37
378.72	1062.60
378.91	1048.56
379.11	887.06
379.31	950.26
379.50	823.87
379.70	966.64
379.89	1067.28
380.09	959.62
380.28	1057.92
380.48	1114.10
380.68	1078.99
380.87	1036.86
381.07	903.45
381.26	959.62
381.46	870.68
381.65	844.93
381.85	795.78
382.04	814.51
382.24	791.10
382.43	741.95
382.63	697.48
382.83	683.44
383.02	746.63
383.22	744.29
383.41	711.52
383.61	765.36
383.80	828.55
384.00	901.11
384.19	1064.94
384.39	1057.92
384.58	1083.67
384.78	1048.56
384.97	1050.90
385.17	1050.90
385.36	936.21
385.56	1001.75
385.75	968.98
385.95	1114.10
386.14	1125.80
386.34	1086.01
386.53	1050.90
386.72	968.98
386.92	1006.43
387.11	1083.67
387.31	1139.84
387.50	1015.79
387.70	1062.60
387.89	1041.54
388.09	1121.12
388.28	1008.77
388.48	1149.20
388.67	1191.33
388.86	1205.38
389.06	1284.95
389.25	1404.32
389.45	1411.34
389.64	1345.81
389.84	1554.12
390.03	1350.49
390.22	1306.02
390.42	1397.30
390.61	1547.09
390.81	1523.69
391.00	1507.30
391.19	1558.80
391.39	1502.62
391.58	1394.96
391.78	1352.83
391.97	1266.23
392.16	1170.27
392.36	1254.53
392.55	1015.79
392.75	760.67
392.94	634.29
393.13	695.14
393.33	760.67
393.52	875.36
393.71	1074.31
393.91	1263.89
394.10	1277.93
394.29	1418.36
394.49	1523.69
394.68	1652.42
394.88	1659.44
395.07	1596.25
395.26	1612.63
395.46	1533.05
395.65	1528.37
395.84	1397.30
396.04	1301.34
396.23	1034.52
396.42	896.43
396.62	868.34
396.81	1032.18
397.00	1163.25
397.19	1247.51
397.39	1640.72
397.58	1816.26
397.77	1834.98
397.97	1933.28
398.16	2026.90
398.35	2057.33
398.55	2019.88
398.74	2120.53
398.93	2284.36
399.12	2235.21
399.32	2108.82
399.51	2172.02
399.70	2363.94
399.90	2293.72
400.09	2237.55
400.28	2387.35
400.47	2373.30
400.67	2450.54
400.86	2450.54
401.05	2363.94
401.24	2518.42
401.44	2499.69
401.63	2415.43
401.82	2422.45
402.01	2555.86
402.21	2436.50
402.40	2586.29
402.59	2441.18
402.78	2293.72
402.97	2356.92
403.17	2328.83
403.36	2616.72
403.55	2609.70
403.74	2731.41
403.93	2630.76
404.13	2478.63
404.32	2462.24
404.51	2487.99
404.70	2572.25
404.89	2693.96
405.09	2576.93
405.28	2452.88
405.47	2434.16
405.66	2429.48
405.85	2422.45
406.05	2279.68
406.24	2354.58
406.43	2389.69
406.62	2455.22
406.81	2616.72
407.00	2520.76
407.20	2436.50
407.39	2380.32
407.58	2392.03
407.77	2663.53
407.96	2651.83
408.15	2874.18
408.34	2738.43
408.54	2825.03
408.73	2981.84
408.92	2796.94
409.11	2736.09
409.30	2623.74
409.49	2476.29
409.68	2417.77
409.87	2349.90
410.07	2466.92
410.26	2525.44
410.45	2839.07
410.64	2857.79
410.83	2825.03
411.02	2944.39
411.21	3073.12
411.40	3112.91
411.59	2974.82
411.78	3002.91
411.98	2960.78
412.17	2979.50
412.36	2911.63
412.55	2818.00
412.74	2944.39
412.93	2813.32
413.12	2888.22
413.31	3162.06
413.50	2965.46
413.69	3276.75
413.88	3204.19
414.07	2993.55
414.26	3101.21
414.45	3014.61
414.64	3119.93
414.83	3143.34
415.02	3190.15
415.22	3199.51
415.41	3251.00
415.60	3180.79
415.79	3300.16
415.98	3361.01
416.17	3375.05
416.36	3288.45
416.55	3194.83
416.74	3311.86
416.93	3117.59
417.12	3155.04
417.31	3185.47
417.50	3269.73
417.69	3300.16
417.88	3215.90
418.07	3080.14
418.26	3208.87
418.45	3145.68
418.64	3297.81
418.83	3417.18
419.02	3325.90
419.21	3478.04
419.39	3267.39
419.58	3052.06
419.77	3183.13
419.96	3164.40
420.15	3405.48
420.34	3534.21
420.53	3669.96
420.72	3632.51
420.91	3592.72
421.10	3545.91
421.29	3501.44
421.48	3414.84
421.67	3681.66
421.86	3527.19
422.05	3351.65
422.24	3152.70
422.43	3038.02
422.61	3150.36
422.80	3445.27
422.99	3501.44
423.18	3393.78
423.37	3229.94
423.56	3265.05
423.75	3384.41
423.94	3424.20
424.13	3150.36
424.32	3199.51
424.50	3171.43
424.69	3253.34
424.88	3307.18
425.07	3227.60
425.26	3215.90
425.45	3136.32
425.64	3103.55
425.83	3258.03
426.01	3260.37
426.20	3332.92
426.39	3346.97
426.58	3152.70
426.77	2953.76
426.96	2988.86
427.15	2820.35
427.33	3063.76
427.52	3300.16
427.71	3164.40
427.90	3365.69
428.09	3361.01
428.28	3180.79
428.46	2995.89
428.65	3082.49
428.84	3225.26
429.03	3110.57
429.22	2874.18
429.40	2801.62
429.59	2523.10
429.78	2438.84
429.97	2256.28
430.16	2305.43
430.34	2455.22
430.53	2312.45
430.72	2516.08
430.91	2527.78
431.10	3089.51
431.28	3438.25
431.47	3651.24
431.66	3758.90
431.85	3548.25
432.03	3471.01
432.22	3201.85
432.41	3321.22
432.60	3552.93
432.79	3583.36
432.97	3859.54
433.16	3625.49
433.35	3424.20
433.54	3141.00
433.72	2951.42
433.91	2951.42
434.10	3251.00
434.28	3447.61
434.47	3571.66
434.66	3634.85
434.85	3564.64
435.03	3707.41
435.22	4166.15
435.41	4713.84
435.59	4880.02
435.78	4484.47
435.97	4189.56
436.16	4119.34
436.34	3894.65
436.53	3875.93
436.72	3957.85
436.90	3742.52
437.09	3651.24
437.28	3595.06
437.46	3817.41
437.65	3819.75
437.84	3548.25
438.02	3384.41
438.21	3251.00
438.40	3400.80
438.58	3522.51
438.77	3740.18
438.96	3735.50
439.14	3892.31
439.33	3955.51
439.52	4046.79
439.70	3948.48
439.89	4002.32
440.08	3674.64
440.26	3735.50
440.45	3779.97
440.63	4184.88
440.82	4374.46
441.01	4294.88
441.19	4278.50
441.38	4341.69
441.57	4430.63
441.75	4395.53
441.94	4601.49
442.12	4449.36
442.31	4498.51
442.50	4318.29
442.68	4301.90
442.87	4334.67
443.05	4292.54
443.24	4442.34
443.43	4601.49
443.61	4631.92
443.80	4631.92
443.98	4252.75
444.17	4334.67
444.35	4660.01
444.54	4812.14
444.73	4657.67
444.91	4440.00
445.10	4283.18
445.28	4112.32
445.47	4170.83
445.65	4142.75
445.84	4280.84
446.02	4294.88
446.21	4571.07
446.39	4269.14
446.58	4531.28
446.77	4545.32
446.95	4582.77
447.14	4784.06
447.32	4774.69
447.51	4723.20
447.69	4559.36
447.88	4440.00
448.06	4645.96
448.25	4521.92
448.43	4517.23
448.62	4533.62
448.80	4435.32
448.99	4648.30
449.17	4760.65
449.36	4660.01
449.54	4894.06
449.73	4912.78
449.91	4760.65
450.10	5018.11
450.28	5228.76
450.46	5083.64
450.65	5130.45
450.83	5139.82
451.02	5046.20
451.20	4954.91
451.39	4954.91
451.57	4943.21
451.76	4919.81
451.94	4821.50
452.13	4840.23
452.31	4498.51
452.49	4379.14
452.68	4304.25
452.86	4482.13
453.05	4437.66
453.23	4690.43
453.42	4702.14
453.60	4678.73
453.78	4875.34
453.97	4772.35
454.15	4781.71
454.34	4610.86
454.52	4617.88
454.70	4557.02
454.89	4678.73
455.07	4559.36
455.26	4847.25
455.44	4772.35
455.62	4968.96
455.81	4999.38
455.99	4884.70
456.17	4936.19
456.36	4896.40
456.54	5004.07
456.73	4971.30
456.91	5170.24
457.09	5107.05
457.28	5317.70
457.46	5011.09
457.64	4947.89
457.83	4833.21
458.01	4762.99
458.19	4945.55
458.38	5027.47
458.56	5022.79
458.74	4915.12
458.93	4997.04
459.11	4933.85
459.29	4959.60
459.48	4994.70
459.66	5032.15
459.84	4884.70
460.03	5135.14
460.21	4980.66
460.39	5186.63
460.57	5263.86
460.76	5240.46
460.94	5235.78
461.12	5144.50
461.31	5170.24
461.49	5165.56
461.67	5268.55
461.85	5486.22
462.04	5320.04
462.22	5647.71
462.40	5165.56
462.59	5231.10
462.77	5200.67
462.95	5343.44
463.13	5348.12
463.32	5174.92
463.50	5067.26
463.68	5100.03
463.86	5195.99
464.05	5114.07
464.23	5067.26
464.41	5018.11
464.59	4842.57
464.78	5149.18
464.96	5149.18
465.14	5006.41
465.32	5184.29
465.50	5371.53
465.69	5413.66
465.87	5217.05
466.05	5270.89
466.23	4877.68
466.41	4791.08
466.60	4805.12
466.78	4973.64
466.96	4905.76
467.14	4950.23
467.32	5212.37
467.51	5188.97
467.69	4828.53
467.87	5083.64
468.05	5074.28
468.23	5057.90
468.41	5095.35
468.60	4957.25
468.78	5032.15
468.96	5177.26
469.14	5125.77
469.32	5050.88
469.50	4957.25
469.69	5109.39
469.87	4997.04
470.05	4910.44
470.23	4823.84
470.41	4870.65
470.59	5036.83
470.77	5001.72
470.95	4978.32
471.14	5289.61
471.32	5093.01
471.50	5322.38
471.68	5483.88
471.86	5551.75
472.04	5383.23
472.22	5584.52
472.40	5261.52
472.58	5221.74
472.77	5242.80
472.95	5287.27
473.13	5362.17
473.31	5245.14
473.49	5146.84
473.67	5210.03
473.85	5327.06
474.03	5467.49
474.21	5495.58
474.39	5799.85
474.57	5738.99
474.75	5806.87
474.93	5605.58
475.12	5336.42
475.30	5650.05
475.48	5394.93
475.66	5483.88
475.84	5605.58
476.02	5570.48
476.20	5383.23
476.38	5563.45
476.56	5734.31
476.74	5879.43
476.92	5799.85
477.10	5717.93
477.28	6083.05
477.46	6031.56
477.64	6134.54
477.82	6101.78
478.00	6057.31
478.18	5902.83
478.36	6094.76
478.54	6038.58
478.72	6146.25
478.90	6069.01
479.08	6326.47
479.26	6406.05
479.44	6389.66
479.62	6438.81
479.80	6387.32
479.98	6443.49
480.16	6560.52
480.34	6380.30
480.52	6609.67
480.70	6576.91
480.88	6452.86
481.06	6647.12
481.24	6565.20
481.41	6810.96
481.59	6684.57
481.77	6862.45
481.95	6918.62
482.13	6930.33
482.31	6832.02
482.49	6913.94
482.67	6935.01
482.85	7059.06
483.03	7255.66
483.21	7098.84
483.39	7129.27
483.57	6988.84
483.74	7199.49
483.92	7173.74
484.10	7080.12
484.28	7283.75
484.46	7176.08
484.64	7213.53
484.82	7316.51
485.00	7098.84
485.18	7089.48
485.35	6820.32
485.53	6296.04
485.71	5982.41
485.89	5818.57
486.07	6120.50
486.25	6487.96
486.43	6850.75
486.61	6881.18
486.78	6967.77
486.96	6729.04
487.14	7150.34
487.32	7447.58
487.50	7653.55
487.68	7836.11
487.85	7859.52
488.03	7843.14
488.21	7941.44
488.39	7658.23
488.57	7606.74
488.75	7592.70
488.92	7728.45
489.10	8058.46
489.28	8538.27
489.46	8809.78
489.64	8695.09
489.81	8631.90
489.99	8634.24
490.17	8718.50
490.35	8798.07
490.53	8793.39
490.70	8423.59
490.88	8414.23
491.06	8835.52
491.24	8491.46
491.41	8627.21
491.59	8070.17
491.77	7981.23
491.95	8187.19
492.13	8285.50
492.30	8692.75
492.48	8917.44
492.66	9132.77
492.84	9135.11
493.01	9008.72
493.19	8908.08
493.37	8613.17
493.54	8589.77
493.72	8746.58
493.90	9118.73
494.08	9474.49
494.25	9453.42
494.43	9673.43
494.61	9741.31
494.79	9437.04
494.96	9607.90
495.14	9467.47
495.32	9287.25
495.49	8964.25
495.67	9156.18
495.85	9420.66
496.02	9727.27
496.20	9652.37
496.38	9514.28
496.55	9652.37
496.73	9802.16
496.91	9708.54
497.09	9795.14
497.26	10073.67
497.44	10024.51
497.62	9811.53
497.79	9516.62
497.97	9280.22
498.14	9071.92
498.32	9439.38
498.50	9596.20
498.67	9944.94
498.85	10038.56
499.03	10031.54
499.20	10204.74
499.38	10022.17
499.56	9905.15
499.73	9795.14
499.91	9811.53
500.08	9563.43
500.26	9263.84
500.44	9235.75
500.61	9736.63
500.79	9486.19
500.97	9446.40
501.14	9355.12
501.32	9350.44
501.49	9432.36
501.67	9207.67
501.84	9577.47
502.02	9518.96
502.20	9774.08
502.37	9853.66
502.55	9556.41
502.72	9891.10
502.90	9783.44
503.07	9699.18
503.25	9575.13
503.43	9118.73
503.60	8922.12
503.78	8779.35
503.95	8744.24
504.13	9385.55
504.30	9687.48
504.48	9682.80
504.65	9738.97
504.83	9884.08
505.01	10101.75
505.18	10139.20
505.36	10457.51
505.53	10001.11
505.71	10356.87
505.88	10476.24
506.06	10436.45
506.23	10087.71
506.41	9881.74
506.58	10059.62
506.76	9973.02
506.93	9769.40
507.11	9881.74
507.28	10005.79
507.46	9982.38
507.63	9666.41
507.81	9640.67
507.98	9507.26
508.16	9893.44
508.33	10045.58
508.50	10244.52
508.68	10455.17
508.85	10623.69
509.03	10366.23
509.20	10581.56
509.38	10345.17
509.55	10085.37
509.73	9977.70
509.90	10342.83
510.08	10513.69
510.25	10314.74
510.42	10333.47
510.60	10235.16
510.77	10345.17
510.95	10541.77
511.12	10633.05
511.30	10609.65
511.47	10892.85
511.64	11283.72
511.82	10686.89
511.99	10478.58
512.17	10298.36
512.34	10202.40
512.51	10052.60
512.69	10146.22
512.86	10317.08
513.04	10539.43
513.21	10651.78
513.38	10314.74
513.56	10239.84
513.73	9919.19
513.90	9792.80
514.08	10022.17
514.25	10186.01
514.43	10092.39
514.60	10193.03
514.77	10391.98
514.95	10244.52
515.12	10377.94
515.29	10406.02
515.47	10544.11
515.64	10710.29
515.81	10600.29
515.99	10595.61
516.16	9921.53
516.33	9270.86
516.51	8552.32
516.68	8552.32
516.85	8411.89
517.03	8369.76
517.20	9015.74
517.37	9884.08
517.54	10492.62
517.72	10265.59
517.89	9528.32
518.06	8718.50
518.24	8856.59
518.41	9334.06
518.58	9961.32
518.75	10141.54
518.93	10003.45
519.10	10080.69
519.27	10146.22
519.45	10270.27
519.62	10459.85
519.79	10551.14
519.96	10586.24
520.14	10349.85
520.31	10207.08
520.48	10150.90
520.65	10242.18
520.83	10466.88
521.00	10672.84
521.17	10668.16
521.34	10492.62
521.52	10637.73
521.69	10883.49
521.86	10918.60
522.03	10743.06
522.20	10352.19
522.38	9830.25
522.55	9832.59
522.72	10080.69
522.89	10155.58
523.07	10476.24
523.24	10462.19
523.41	10492.62
523.58	10787.53
523.75	10958.39
523.92	10787.53
524.10	11087.12
524.27	10949.03
524.44	10782.85
524.61	10698.59
524.78	10534.75
524.96	10700.93
525.13	10614.33
525.30	10530.07
525.47	10977.11
525.64	10913.92
525.81	10738.38
525.98	10160.27
526.16	9364.48
526.33	9451.08
526.50	9242.78
526.67	9390.23
526.84	9233.41
527.01	9638.33
527.18	9958.98
527.36	10054.94
527.53	10597.95
527.70	10860.09
527.87	10710.29
528.04	10452.83
528.21	10614.33
528.38	10679.86
528.55	11272.02
528.72	11122.23
528.89	11101.16
529.07	11239.25
529.24	10930.30
529.41	10771.15
529.58	10607.31
529.75	10319.42
529.92	10644.76
530.09	10576.88
530.26	11026.26
530.43	10836.68
530.60	11225.21
530.77	11059.03
530.94	11150.31
531.11	11073.07
531.28	10771.15
531.46	10738.38
531.63	10981.79
531.80	10902.22
531.97	10546.45
532.14	10443.47
532.31	10047.92
532.48	9834.93
532.65	9764.72
532.82	9980.04
532.99	10518.37
533.16	10658.80
533.33	10934.98
533.50	10878.81
533.67	10473.90
533.84	10242.18
534.01	10466.88
534.18	10586.24
534.35	10635.39
534.52	10597.95
534.69	10881.15
534.86	10672.84
535.03	10927.96
535.20	10995.84
535.37	11232.23
535.54	11250.96
535.71	11286.06
535.88	11147.97
536.05	10766.46
536.22	10427.09
536.38	10586.24
536.55	10389.64
536.72	10204.74
536.89	10073.67
537.06	10281.97
537.23	10930.30
537.40	10689.23
537.57	10909.24
537.74	10888.17
537.91	10628.37
538.08	10623.69
538.25	10780.51
538.42	10888.17
538.59	10902.22
538.75	10480.92
538.92	10455.17
539.09	10434.11
539.26	10296.02
539.43	10389.64
539.60	10417.72
539.77	10525.39
539.94	10466.88
540.11	10076.01
540.28	10064.30
540.44	10186.01
540.61	10438.79
540.78	10317.08
540.95	10258.57
541.12	10630.71
541.29	10965.41
541.46	10902.22
541.62	11068.39
541.79	10970.09
541.96	10644.76
542.13	10726.68
542.30	10967.75
542.47	10956.05
542.63	10796.89
542.80	10675.18
542.97	10841.36
543.14	10441.13
543.31	10686.89
543.48	10733.70
543.64	11222.87
543.81	11351.60
543.98	11047.33
544.15	10944.34
544.32	10963.07
544.48	10829.66
544.65	10789.87
544.82	11054.35
544.99	10979.45
545.16	11042.65
545.32	10698.59
545.49	11637.14
545.66	12437.61
545.83	12690.38
546.00	12353.35
546.16	11215.85
546.33	11070.73
546.50	10764.12
546.67	10778.17
546.83	10738.38
547.00	10700.93
547.17	10588.58
547.34	10214.10
547.50	10328.78
547.67	10171.97
547.84	10197.71
548.00	10448.15
548.17	10703.27
548.34	10478.58
548.51	10518.37
548.67	10761.78
548.84	10569.86
549.01	10738.38
549.18	10373.25
549.34	10654.12
549.51	10700.93
549.68	10548.79
549.84	10354.53
550.01	10513.69
550.18	10473.90
550.34	10296.02
550.51	10230.48
550.68	10186.01
550.84	10066.64
551.01	10221.12
551.18	10244.52
551.34	10211.76
551.51	10370.91
551.68	10501.98
551.84	10712.63
552.01	10462.19
552.18	10410.70
552.34	10232.82
552.51	10045.58
552.68	9982.38
552.84	10143.88
553.01	10078.35
553.18	10328.78
553.34	10338.15
553.51	10345.17
553.67	10338.15
553.84	10417.72
554.01	10232.82
554.17	10251.55
554.34	10162.61
554.51	10026.86
554.67	10413.04
554.84	10228.14
555.00	10202.40
555.17	10197.71
555.33	10207.08
555.50	9870.04
555.67	10036.22
555.83	9926.21
556.00	9982.38
556.16	10125.16
556.33	9666.41
556.50	9738.97
556.66	9713.22
556.83	9404.27
556.99	9710.88
557.16	10164.95
557.32	9738.97
557.49	9767.06
557.65	9881.74
557.82	9809.19
557.98	9968.34
558.15	9731.95
558.32	9570.45
558.48	9085.96
558.65	9320.01
558.81	9254.48
558.98	9329.38
559.14	9521.30
559.31	9418.32
559.47	9659.39
559.64	9713.22
559.80	9357.46
559.97	9390.23
560.13	9289.59
560.30	9589.17
560.46	9919.19
560.63	10003.45
560.79	10068.98
560.96	10038.56
561.12	9511.94
561.29	9341.08
561.45	9266.18
561.61	9427.68
561.78	9575.13
561.94	9605.56
562.11	9537.68
562.27	9455.76
562.44	9448.74
562.60	9518.96
562.77	9685.14
562.93	9811.53
563.10	9643.01
563.26	9514.28
563.42	9572.79
563.59	9338.74
563.75	9392.57
563.92	9401.93
564.08	9362.14
564.24	9509.60
564.41	9420.66
564.57	9483.85
564.74	9415.98
564.90	9345.76
565.07	9345.76
565.23	9291.93
565.39	9078.94
565.56	8898.72
565.72	8809.78
565.88	9020.42
566.05	8926.80
566.21	9029.79
566.38	8975.95
566.54	9217.03
566.70	9364.48
566.87	9352.78
567.03	9268.52
567.19	9160.86
567.36	9430.02
567.52	9254.48
567.68	8994.68
567.85	8835.52
568.01	8720.84
568.17	8629.56
568.34	8557.00
568.50	8421.25
568.66	8435.29
568.83	8730.20
568.99	8542.96
569.15	8711.47
569.32	8578.06
569.48	8627.21
569.64	8507.85
569.81	8505.51
569.97	8456.36
570.13	8648.28
570.30	8608.49
570.46	8374.44
570.62	8416.57
570.78	8189.53
570.95	8138.04
571.11	8446.99
571.27	8428.27
571.43	8219.96
571.60	8517.21
571.76	8688.07
571.92	8477.42
572.09	8802.75
572.25	8568.70
572.41	8540.61
572.57	8599.13
572.74	8720.84
572.90	8725.52
573.06	8657.64
573.22	8393.16
573.38	8599.13
573.55	8449.33
573.71	8552.32
573.87	8594.45
574.03	8374.44
574.20	8369.76
574.36	8292.52
574.52	8159.11
574.68	8308.90
574.84	8243.37
575.01	8229.32
575.17	8147.40
575.33	8133.36
575.49	8283.16
575.65	8329.97
575.82	8313.58
575.98	8194.22
576.14	8304.22
576.30	8409.54
576.46	8659.98
576.62	8781.69
576.79	8781.69
576.95	8498.49
577.11	8346.35
577.27	8285.50
577.43	8435.29
577.59	8332.31
577.75	8159.11
577.92	8112.30
578.08	7868.88
578.24	7873.56
578.40	8203.58
578.56	8456.36
578.72	8545.30
578.88	8786.37
579.04	8657.64
579.21	8528.91
579.37	8355.71
579.53	8463.38
579.69	8344.01
579.85	8587.43
580.01	8439.97
580.17	8477.42
580.33	8430.61
580.49	8376.78
580.65	8259.75
580.82	8421.25
580.98	8290.18
581.14	8477.42
581.30	8397.84
581.46	8585.08
581.62	8339.33
581.78	8674.03
581.94	8465.72
582.10	8498.49
582.26	8617.85
582.42	8594.45
582.58	8662.32
582.74	8491.46
582.90	8531.25
583.06	8624.87
583.22	8315.92
583.38	8482.10
583.54	8318.26
583.70	8517.21
583.86	8559.34
584.02	8262.09
584.18	8414.23
584.34	8379.12
584.50	8496.14
584.66	8315.92
584.82	8318.26
584.98	8269.11
585.14	8252.73
585.30	7985.91
585.46	7976.55
585.62	7819.73
585.78	8028.04
585.94	7943.78
586.10	8084.21
586.26	7934.42
586.42	8051.44
586.58	8100.59
586.74	8154.43
586.90	8135.70
587.06	8159.11
587.22	7864.20
587.38	7913.35
587.54	7751.85
587.70	7489.71
587.86	7375.03
588.02	7140.97
588.18	6913.94
588.34	6707.98
588.49	6214.12
588.65	5863.04
588.81	5727.29
588.97	5818.57
589.13	5884.11
589.29	5682.82
589.45	5706.23
589.61	5949.64
589.77	6331.15
589.93	6181.35
590.08	6619.04
590.24	6841.39
590.40	6825.00
590.56	6766.49
590.72	6637.76
590.88	6700.95
591.04	6576.91
591.20	6710.32
591.35	6574.56
591.51	6478.60
591.67	6420.09
591.83	6459.88
591.99	6462.22
592.15	6729.04
592.31	6796.92
592.46	7052.03
592.62	7054.37
592.78	7178.42
592.94	6993.52
593.10	7103.53
593.26	7152.68
593.41	7260.34
593.57	7215.87
593.73	6719.68
593.89	6502.01
594.05	6319.45
594.20	6359.24
