SpectraSuite Data File
++++++++++++++++++++++++++++++++++++
Date: Fri Oct 04 11:44:18 GMT-05:00 2013
User: price-jones
Dark Spectrum Present: No
Reference Spectrum Present: No
Number of Sampled Component Spectra: 1
Spectrometers: USB2+H05261
Integration Time (usec): 100000 (USB2+H05261)
Spectra Averaged: 1 (USB2+H05261)
Boxcar Smoothing: 0 (USB2+H05261)
Correct for Electrical Dark: No (USB2+H05261)
Strobe/Lamp Enabled: No (USB2+H05261)
Correct for Detector Non-linearity: No (USB2+H05261)
Correct for Stray Light: No (USB2+H05261)
Number of Pixels in Processed Spectrum: 2048
>>>>>Begin Processed Spectral Data<<<<<
365.73	46.81
365.92	46.81
366.12	46.81
366.32	0.00
366.52	0.00
366.72	0.00
366.91	0.00
367.11	14.04
367.31	25.75
367.51	0.00
367.70	0.00
367.90	0.00
368.10	0.00
368.30	16.38
368.49	0.00
368.69	0.00
368.89	0.00
369.09	0.00
369.28	0.00
369.48	0.00
369.68	0.00
369.87	0.00
370.07	0.00
370.27	25.75
370.47	142.77
370.66	425.98
370.86	482.15
371.06	589.82
371.25	557.05
371.45	491.51
371.65	491.51
371.84	461.09
372.04	484.49
372.24	496.19
372.44	528.96
372.63	510.24
372.83	554.71
373.03	489.17
373.22	365.12
373.42	505.56
373.62	552.37
373.81	582.79
374.01	580.45
374.21	505.56
374.40	498.53
374.60	566.41
374.79	526.62
374.99	592.16
375.19	664.71
375.38	685.78
375.58	594.50
375.78	571.09
375.97	613.22
376.17	660.03
376.37	585.13
376.56	692.80
376.76	636.63
376.95	641.31
377.15	755.99
377.35	741.95
377.54	765.36
377.74	674.07
377.93	816.85
378.13	739.61
378.33	784.08
378.52	676.41
378.72	662.37
378.91	720.88
379.11	636.63
379.31	566.41
379.50	624.92
379.70	777.06
379.89	650.67
380.09	739.61
380.28	695.14
380.48	819.19
380.68	699.82
380.87	777.06
381.07	739.61
381.26	568.75
381.46	580.45
381.65	643.65
381.85	676.41
382.04	500.87
382.24	472.79
382.43	489.17
382.63	519.60
382.83	547.69
383.02	580.45
383.22	601.52
383.41	484.49
383.61	477.47
383.80	531.30
384.00	554.71
384.19	702.16
384.39	784.08
384.58	720.88
384.78	741.95
384.97	732.59
385.17	699.82
385.36	681.10
385.56	662.37
385.75	648.33
385.95	688.12
386.14	744.29
386.34	793.44
386.53	765.36
386.72	734.93
386.92	716.20
387.11	770.04
387.31	798.12
387.50	753.65
387.70	732.59
387.89	671.73
388.09	751.31
388.28	678.76
388.48	741.95
388.67	751.31
388.86	809.83
389.06	821.53
389.25	1027.50
389.45	971.32
389.64	1034.52
389.84	952.60
390.03	983.02
390.22	926.85
390.42	929.19
390.61	1029.84
390.81	987.71
391.00	1060.26
391.19	1074.31
391.39	976.00
391.58	915.15
391.78	947.92
391.97	922.17
392.16	772.38
392.36	819.19
392.55	690.46
392.75	477.47
392.94	484.49
393.13	507.90
393.33	447.04
393.52	629.60
393.71	748.97
393.91	847.27
394.10	931.53
394.29	898.77
394.49	980.68
394.68	1081.33
394.88	1144.52
395.07	1093.03
395.26	1130.48
395.46	964.30
395.65	997.07
395.84	847.27
396.04	870.68
396.23	697.48
396.42	592.16
396.62	608.54
396.81	770.04
397.00	835.57
397.19	947.92
397.39	1039.20
397.58	1139.84
397.77	1320.06
397.97	1338.79
398.16	1348.15
398.35	1427.73
398.55	1451.13
398.74	1490.92
398.93	1542.41
399.12	1533.05
399.32	1488.58
399.51	1416.02
399.70	1605.61
399.90	1448.79
400.09	1495.60
400.28	1495.60
400.47	1469.86
400.67	1685.19
400.86	1607.95
401.05	1645.40
401.24	1666.46
401.44	1743.70
401.63	1685.19
401.82	1717.95
402.01	1633.69
402.21	1689.87
402.40	1593.90
402.59	1558.80
402.78	1504.96
402.97	1441.77
403.17	1598.59
403.36	1732.00
403.55	1708.59
403.74	1750.72
403.93	1837.32
404.13	1961.37
404.32	2005.84
404.51	1933.28
404.70	1877.11
404.89	1762.42
405.09	1696.89
405.28	1605.61
405.47	1640.72
405.66	1717.95
405.85	1612.63
406.05	1504.96
406.24	1582.20
406.43	1638.38
406.62	1657.10
406.81	1699.23
407.00	1561.14
407.20	1533.05
407.39	1736.68
407.58	1743.70
407.77	1671.14
407.96	1657.10
408.15	1776.47
408.34	1816.26
408.54	1900.52
408.73	1827.96
408.92	1827.96
409.11	1816.26
409.30	1710.93
409.49	1631.35
409.68	1542.41
409.87	1523.69
410.07	1650.08
410.26	1640.72
410.45	1729.66
410.64	1839.66
410.83	1900.52
411.02	1865.41
411.21	1914.56
411.40	1900.52
411.59	1881.79
411.78	1937.96
411.98	1933.28
412.17	1987.11
412.36	1961.37
412.55	1874.77
412.74	1909.88
412.93	1930.94
413.12	1937.96
413.31	2066.69
413.50	2022.22
413.69	2080.74
413.88	2015.20
414.07	1987.11
414.26	1952.01
414.45	1991.80
414.64	1998.82
414.83	2090.10
415.02	1968.39
415.22	2106.48
415.41	2104.14
415.60	2127.55
415.79	2256.28
415.98	2165.00
416.17	2289.04
416.36	2204.78
416.55	2181.38
416.74	2010.52
416.93	1947.33
417.12	2059.67
417.31	2076.06
417.50	2174.36
417.69	2172.02
417.88	2127.55
418.07	2169.68
418.26	2190.74
418.45	2078.40
418.64	2253.94
418.83	2221.17
419.02	2223.51
419.21	2305.43
419.39	2239.89
419.58	1921.58
419.77	2092.44
419.96	2141.59
420.15	2211.81
420.34	2157.97
420.53	2193.08
420.72	2410.75
420.91	2270.32
421.10	2345.22
421.29	2157.97
421.48	2211.81
421.67	2356.92
421.86	2242.23
422.05	2115.84
422.24	1900.52
422.43	1907.54
422.61	2146.27
422.80	2272.66
422.99	2260.96
423.18	2293.72
423.37	2122.87
423.56	2125.21
423.75	2211.81
423.94	2190.74
424.13	2153.29
424.32	2026.90
424.50	2057.33
424.69	2162.66
424.88	2225.85
425.07	2087.76
425.26	2024.56
425.45	2031.58
425.64	2099.46
425.83	2024.56
426.01	2160.31
426.20	2153.29
426.39	2179.04
426.58	2050.31
426.77	1989.46
426.96	1846.68
427.15	1991.80
427.33	2073.71
427.52	2083.08
427.71	2193.08
427.90	2162.66
428.09	2085.42
428.28	2076.06
428.46	1994.14
428.65	1998.82
428.84	2031.58
429.03	1928.60
429.22	1849.02
429.40	1839.66
429.59	1650.08
429.78	1579.86
429.97	1521.35
430.16	1502.62
430.34	1514.33
430.53	1575.18
430.72	1537.73
430.91	1734.34
431.10	1937.96
431.28	2331.17
431.47	2417.77
431.66	2480.97
431.85	2235.21
432.03	2150.95
432.22	1973.07
432.41	2148.61
432.60	2438.84
432.79	2471.61
432.97	2434.16
433.16	2429.48
433.35	2270.32
433.54	2026.90
433.72	1947.33
433.91	1982.43
434.10	2071.37
434.28	2328.83
434.47	2380.32
434.66	2466.92
434.85	2265.64
435.03	2600.34
435.22	3351.65
435.41	4311.27
435.59	4201.26
435.78	3707.41
435.97	3089.51
436.16	2738.43
436.34	2499.69
436.53	2422.45
436.72	2438.84
436.90	2427.14
437.09	2431.82
437.28	2258.62
437.46	2431.82
437.65	2387.35
437.84	2321.81
438.02	2127.55
438.21	2197.76
438.40	2239.89
438.58	2298.41
438.77	2539.48
438.96	2373.30
439.14	2506.71
439.33	2520.76
439.52	2480.97
439.70	2509.05
439.89	2471.61
440.08	2406.07
440.26	2387.35
440.45	2499.69
440.63	2722.04
440.82	2825.03
441.01	2778.22
441.19	2719.70
441.38	2792.26
441.57	2841.41
441.75	2899.92
441.94	2963.12
442.12	2890.56
442.31	2871.84
442.50	2892.90
442.68	2848.43
442.87	2803.96
443.05	2867.16
443.24	2787.58
443.43	2864.82
443.61	2916.31
443.80	3040.36
443.98	2761.83
444.17	2813.32
444.35	2920.99
444.54	2960.78
444.73	2930.35
444.91	2768.85
445.10	2747.79
445.28	2757.15
445.47	2722.04
445.65	2708.00
445.84	2696.30
446.02	2832.05
446.21	2818.00
446.39	2813.32
446.58	2995.89
446.77	2939.71
446.95	2902.26
447.14	3080.14
447.32	3206.53
447.51	2998.23
447.69	2818.00
447.88	2867.16
448.06	3019.29
448.25	2974.82
448.43	2958.44
448.62	2963.12
448.80	2848.43
448.99	2981.84
449.17	2967.80
449.36	2960.78
449.54	3119.93
449.73	3070.78
449.91	3115.25
450.10	3110.57
450.28	3337.60
450.46	3208.87
450.65	3248.66
450.83	3180.79
451.02	3162.06
451.20	3141.00
451.39	2958.44
451.57	3016.95
451.76	3112.91
451.94	3150.36
452.13	3026.31
452.31	2988.86
452.49	2750.13
452.68	2750.13
452.86	2818.00
453.05	2944.39
453.23	2960.78
453.42	2789.92
453.60	3007.59
453.78	3014.61
453.97	2981.84
454.15	3129.30
454.34	2967.80
454.52	2981.84
454.70	2984.18
454.89	2869.50
455.07	2883.54
455.26	3038.02
455.44	3190.15
455.62	3173.77
455.81	3243.98
455.99	3204.19
456.17	3131.64
456.36	3211.22
456.54	3251.00
456.73	3295.47
456.91	3241.64
457.09	3222.92
457.28	3377.39
457.46	3155.04
457.64	3241.64
457.83	3166.74
458.01	3026.31
458.19	3023.97
458.38	3141.00
458.56	3208.87
458.74	3166.74
458.93	3105.89
459.11	3112.91
459.29	3192.49
459.48	3091.85
459.66	3056.74
459.84	3251.00
460.03	3314.20
460.21	3227.60
460.39	3431.23
460.57	3304.84
460.76	3293.13
460.94	3405.48
461.12	3309.52
461.31	3246.32
461.49	3304.84
461.67	3424.20
461.85	3400.80
462.04	3379.73
462.22	3817.41
462.40	3251.00
462.59	3236.96
462.77	3300.16
462.95	3487.40
463.13	3316.54
463.32	3279.09
463.50	3232.28
463.68	3304.84
463.86	3330.58
464.05	3262.71
464.23	3094.19
464.41	3185.47
464.59	3178.45
464.78	3330.58
464.96	3220.58
465.14	3239.30
465.32	3295.47
465.50	3316.54
465.69	3358.67
465.87	3220.58
466.05	3220.58
466.23	3136.32
466.41	3012.27
466.60	3124.62
466.78	3080.14
466.96	3169.09
467.14	3110.57
467.32	3260.37
467.51	3293.13
467.69	3150.36
467.87	3152.70
468.05	3232.28
468.23	3255.69
468.41	3246.32
468.60	3197.17
468.78	3316.54
468.96	3258.03
469.14	3171.43
469.32	3110.57
469.50	3176.11
469.69	3258.03
469.87	3075.46
470.05	3019.29
470.23	3098.87
470.41	3075.46
470.59	3035.67
470.77	3206.53
470.95	3187.81
471.14	3279.09
471.32	3222.92
471.50	3478.04
471.68	3309.52
471.86	3585.70
472.04	3389.10
472.22	3574.00
472.40	3332.92
472.58	3272.07
472.77	3260.37
472.95	3290.79
473.13	3473.36
473.31	3403.14
473.49	3309.52
473.67	3321.22
473.85	3646.55
474.03	3597.40
474.21	3459.31
474.39	3611.45
474.57	3716.77
474.75	3510.80
474.93	3660.60
475.12	3517.83
475.30	3433.57
475.48	3414.84
475.66	3501.44
475.84	3419.52
476.02	3445.27
476.20	3400.80
476.38	3328.24
476.56	3522.51
476.74	3592.72
476.92	3693.37
477.10	3639.53
477.28	3822.09
477.46	3852.52
477.64	3868.91
477.82	3854.86
478.00	3775.28
478.18	3899.33
478.36	3805.71
478.54	3737.84
478.72	3836.14
478.90	4011.68
479.08	3953.16
479.26	4081.89
479.44	3871.25
479.62	3824.44
479.80	3960.19
479.98	4044.45
480.16	4002.32
480.34	3868.91
480.52	3960.19
480.70	4077.21
480.88	4065.51
481.06	4161.47
481.24	4201.26
481.41	4224.67
481.59	4437.66
481.77	4428.29
481.95	4308.93
482.13	4262.12
482.31	4329.99
482.49	4306.59
482.67	4447.02
482.85	4304.25
483.03	4470.42
483.21	4360.42
483.39	4535.96
483.57	4367.44
483.74	4512.55
483.92	4545.32
484.10	4435.32
484.28	4538.30
484.46	4589.79
484.64	4723.20
484.82	4519.57
485.00	4414.25
485.18	4390.84
485.35	4234.03
485.53	3922.74
485.71	3861.88
485.89	3637.19
486.07	3896.99
486.25	4147.43
486.43	4418.93
486.61	4503.19
486.78	4428.29
486.96	4477.44
487.14	4678.73
487.32	4788.74
487.50	4812.14
487.68	4952.57
487.85	4957.25
488.03	5022.79
488.21	4990.02
488.39	4896.40
488.57	4861.29
488.75	4725.54
488.92	5027.47
489.10	5240.46
489.28	5446.43
489.46	5540.05
489.64	5413.66
489.81	5570.48
489.99	5451.11
490.17	5481.53
490.35	5568.13
490.53	5369.19
490.70	5270.89
490.88	5247.48
491.06	5380.89
491.24	5430.04
491.41	5387.91
491.59	5102.37
491.77	5069.60
491.95	5088.32
492.13	5376.21
492.30	5584.52
492.48	5441.75
492.66	5701.54
492.84	5696.86
493.01	5678.14
493.19	5558.77
493.37	5490.90
493.54	5427.70
493.72	5586.86
493.90	5647.71
494.08	5975.39
494.25	5933.26
494.43	6141.57
494.61	6022.20
494.79	5947.30
494.96	5879.43
495.14	5937.94
495.32	5802.19
495.49	5596.22
495.67	5881.77
495.85	6125.18
496.02	6078.37
496.20	6083.05
496.38	6001.13
496.55	5809.21
496.73	6256.25
496.91	5968.37
497.09	6157.95
497.26	6090.07
497.44	6221.14
497.62	6057.31
497.79	5858.36
497.97	5734.31
498.14	5746.02
498.32	5912.19
498.50	6225.82
498.67	6272.64
498.85	6099.44
499.03	6370.94
499.20	6202.42
499.38	6134.54
499.56	6190.72
499.73	6150.93
499.91	5895.81
500.08	5940.28
500.26	5839.64
500.44	5923.90
500.61	5996.45
500.79	5769.42
500.97	5851.34
501.14	5797.51
501.32	5818.57
501.49	5809.21
501.67	5778.78
501.84	5792.83
502.02	5935.60
502.20	6061.99
502.37	6099.44
502.55	5919.21
502.72	5996.45
502.90	6094.76
503.07	6087.73
503.25	5977.73
503.43	5806.87
503.60	5582.18
503.78	5469.83
503.95	5441.75
504.13	5839.64
504.30	6059.65
504.48	6045.60
504.65	6122.84
504.83	6169.65
505.01	6267.95
505.18	6101.78
505.36	6174.33
505.53	6120.50
505.71	6506.69
505.88	6445.84
506.06	6321.79
506.23	6293.70
506.41	6190.72
506.58	6038.58
506.76	6282.00
506.93	6090.07
507.11	6080.71
507.28	6160.29
507.46	5998.79
507.63	5961.34
507.81	5802.19
507.98	5975.39
508.16	6092.41
508.33	6143.91
508.50	6249.23
508.68	6401.37
508.85	6628.40
509.03	6396.68
509.20	6441.15
509.38	6260.93
509.55	6207.10
509.73	6125.18
509.90	6504.35
510.08	6340.51
510.25	6270.30
510.42	6382.64
510.60	6305.40
510.77	6190.72
510.95	6551.16
511.12	6497.33
511.30	6628.40
511.47	6684.57
511.64	6663.51
511.82	6565.20
511.99	6310.08
512.17	6270.30
512.34	6164.97
512.51	6139.23
512.69	6438.81
512.86	6387.32
513.04	6298.38
513.21	6520.73
513.38	6118.16
513.56	6204.76
513.73	6188.38
513.90	6216.46
514.08	6087.73
514.25	6335.83
514.43	6438.81
514.60	6303.06
514.77	6406.05
514.95	6377.96
515.12	6223.48
515.29	6277.32
515.47	6469.24
515.64	6647.12
515.81	6363.92
515.99	6314.77
516.16	5991.77
516.33	5650.05
516.51	5530.69
516.68	5090.67
516.85	5174.92
517.03	5268.55
517.20	5682.82
517.37	6099.44
517.54	6410.73
517.72	6289.02
517.89	5827.93
518.06	5291.95
518.24	5490.90
518.41	5886.45
518.58	5891.13
518.75	6024.54
518.93	6019.86
519.10	6012.84
519.27	6164.97
519.45	6069.01
519.62	6384.98
519.79	6441.15
519.96	6307.74
520.14	6441.15
520.31	6097.10
520.48	6118.16
520.65	6303.06
520.83	6249.23
521.00	6590.95
521.17	6612.01
521.34	6319.45
521.52	6436.47
521.69	6492.65
521.86	6820.32
522.03	6548.82
522.20	6436.47
522.38	6118.16
522.55	6291.36
522.72	6408.39
522.89	6239.87
523.07	6258.59
523.24	6413.07
523.41	6445.84
523.58	6534.78
523.75	6628.40
523.92	6724.36
524.10	6677.55
524.27	6670.53
524.44	6771.17
524.61	6668.19
524.78	6469.24
524.96	6494.99
525.13	6539.46
525.30	6567.54
525.47	6817.98
525.64	6658.82
525.81	6410.73
525.98	6179.01
526.16	5746.02
526.33	5837.30
526.50	5790.49
526.67	5675.80
526.84	5661.76
527.01	6029.22
527.18	6113.48
527.36	6202.42
527.53	6457.54
527.70	6473.92
527.87	6471.58
528.04	6286.68
528.21	6420.09
528.38	6520.73
528.55	6822.66
528.72	6864.79
528.89	6754.79
529.07	6780.53
529.24	6682.23
529.41	6314.77
529.58	6389.66
529.75	6523.07
529.92	6473.92
530.09	6539.46
530.26	6956.07
530.43	6810.96
530.60	6829.68
530.77	6935.01
530.94	6930.33
531.11	6703.29
531.28	6464.56
531.46	6775.85
531.63	6516.05
531.80	6757.13
531.97	6607.33
532.14	6347.53
532.31	6310.08
532.48	6087.73
532.65	6090.07
532.82	6171.99
532.99	6558.18
533.16	6651.80
533.33	6778.19
533.50	6675.21
533.67	6546.48
533.84	6399.02
534.01	6424.77
534.18	6558.18
534.35	6546.48
534.52	6443.49
534.69	6616.69
534.86	6750.10
535.03	6696.27
535.20	6724.36
535.37	6857.77
535.54	6953.73
535.71	6801.60
535.88	6773.51
536.05	6677.55
536.22	6471.58
536.38	6483.28
536.55	6237.53
536.72	6417.75
536.89	6291.36
537.06	6558.18
537.23	6745.42
537.40	6703.29
537.57	6841.39
537.74	6841.39
537.91	6773.51
538.08	6644.78
538.25	6785.21
538.42	6750.10
538.59	6724.36
538.75	6560.52
538.92	6499.67
539.09	6562.86
539.26	6572.22
539.43	6604.99
539.60	6663.51
539.77	6768.83
539.94	6923.30
540.11	6649.46
540.28	6583.93
540.44	6675.21
540.61	6927.99
540.78	7063.74
540.95	7475.67
541.12	7548.23
541.29	7676.96
541.46	8056.12
541.62	7805.69
541.79	7929.74
541.96	7655.89
542.13	7634.83
542.30	7473.33
542.47	7391.41
542.63	7433.54
542.80	7323.54
542.97	7419.50
543.14	7295.45
543.31	7396.09
543.48	7342.26
543.64	7599.72
543.81	7843.14
543.98	7590.36
544.15	7494.40
544.32	7358.64
544.48	7501.42
544.65	7517.80
544.82	7454.61
544.99	7599.72
545.16	7417.16
545.32	7494.40
545.49	8617.85
545.66	10305.38
545.83	10878.81
546.00	10445.81
546.16	8777.01
546.33	8077.19
546.50	7541.21
546.67	7571.63
546.83	7173.74
547.00	7084.80
547.17	7096.50
547.34	6850.75
547.50	6815.64
547.67	6822.66
547.84	6829.68
548.00	6794.58
548.17	6953.73
548.34	6970.12
548.51	6977.14
548.67	7021.61
548.84	6789.89
549.01	6848.41
549.18	6862.45
549.34	6813.30
549.51	6736.06
549.68	6848.41
549.84	6729.04
550.01	6635.42
550.18	6825.00
550.34	6700.95
550.51	6712.66
550.68	6623.72
550.84	6429.45
551.01	6438.81
551.18	6555.84
551.34	6600.31
551.51	6562.86
551.68	6569.88
551.84	6696.27
552.01	6548.82
552.18	6595.63
552.34	6230.51
552.51	6143.91
552.68	6242.21
552.84	6305.40
553.01	6108.80
553.18	6265.61
553.34	6359.24
553.51	6282.00
553.67	6384.98
553.84	6637.76
554.01	6263.27
554.17	6207.10
554.34	6253.91
554.51	6244.55
554.67	6370.94
554.84	6509.03
555.00	6209.44
555.17	6127.52
555.33	6382.64
555.50	6223.48
555.67	6164.97
555.83	6211.78
556.00	6052.63
556.16	6141.57
556.33	6038.58
556.50	6076.03
556.66	6012.84
556.83	5764.74
556.99	5905.17
557.16	5959.00
557.32	5912.19
557.49	5989.43
557.65	6003.47
557.82	6155.61
557.98	5898.15
558.15	5944.96
558.32	5926.24
558.48	5638.35
558.65	5556.43
558.81	5584.52
558.98	5790.49
559.14	5703.89
559.31	5884.11
559.47	5785.80
559.64	5696.86
559.80	5673.46
559.97	5703.89
560.13	5968.37
560.30	5956.66
560.46	5893.47
560.63	5905.17
560.79	5984.75
560.96	5870.06
561.12	5823.25
561.29	5577.50
561.45	5717.93
561.61	5776.44
561.78	5898.15
561.94	5783.46
562.11	5731.97
562.27	5556.43
562.44	5764.74
562.60	5954.32
562.77	5900.49
562.93	5874.74
563.10	5881.77
563.26	5694.52
563.42	5935.60
563.59	5727.29
563.75	5771.76
563.92	5689.84
564.08	5774.10
564.24	5750.70
564.41	5867.72
564.57	5834.96
564.74	5729.63
564.90	5839.64
565.07	5741.33
565.23	5860.70
565.39	5547.07
565.56	5444.09
565.72	5427.70
565.88	5254.50
566.05	5439.40
566.21	5551.75
566.38	5526.00
566.54	5537.71
566.70	5551.75
566.87	5722.61
567.03	5706.23
567.19	5628.99
567.36	5614.95
567.52	5640.69
567.68	5636.01
567.85	5427.70
568.01	5551.75
568.17	5191.31
568.34	5123.43
568.50	5226.42
568.66	5181.95
568.83	5390.25
568.99	5322.38
569.15	5233.44
569.32	5320.04
569.48	5324.72
569.64	5224.08
569.81	5219.39
569.97	5313.02
570.13	5170.24
570.30	5104.71
570.46	5301.31
570.62	5069.60
570.78	5029.81
570.95	4990.02
571.11	5109.39
571.27	5249.82
571.43	5050.88
571.60	5203.01
571.76	5074.28
571.92	5247.48
572.09	5401.96
572.25	5254.50
572.41	5093.01
572.57	5310.68
572.74	5359.83
572.90	5144.50
573.06	5296.63
573.22	5434.72
573.38	5240.46
573.55	5205.35
573.71	5394.93
573.87	5200.67
574.03	5001.72
574.20	4924.49
574.36	5088.32
574.52	4990.02
574.68	5076.62
574.84	5100.03
575.01	4975.98
575.17	5034.49
575.33	5149.18
575.49	5174.92
575.65	5093.01
575.82	5085.98
575.98	5018.11
576.14	5088.32
576.30	5186.63
576.46	5518.98
576.62	5792.83
576.79	5856.02
576.95	5568.13
577.11	5380.89
577.27	5392.59
577.43	5160.88
577.59	5153.86
577.75	5048.54
577.92	4849.59
578.08	4877.68
578.24	4865.97
578.40	5001.72
578.56	5460.47
578.72	5652.39
578.88	5654.73
579.04	5514.30
579.21	5343.44
579.37	5280.25
579.53	5275.57
579.69	5275.57
579.85	5411.32
580.01	5488.56
580.17	5341.10
580.33	5245.14
580.49	5186.63
580.65	5137.48
580.82	5181.95
580.98	5163.22
581.14	5193.65
581.30	5448.77
581.46	5203.01
581.62	5174.92
581.78	5331.74
581.94	5345.78
582.10	5221.74
582.26	5416.00
582.42	5352.81
582.58	5481.53
582.74	5310.68
582.90	5502.60
583.06	5413.66
583.22	5313.02
583.38	5284.93
583.54	5289.61
583.70	5331.74
583.86	5355.15
584.02	5156.20
584.18	5338.76
584.34	5167.90
584.50	5296.63
584.66	5287.27
584.82	5027.47
584.98	5315.36
585.14	5139.82
585.30	5179.61
585.46	4940.87
585.62	4889.38
585.78	5022.79
585.94	4901.08
586.10	4992.36
586.26	5137.48
586.42	5018.11
586.58	5130.45
586.74	5151.52
586.90	5394.93
587.06	5444.09
587.22	5177.26
587.38	5116.41
587.54	4929.17
587.70	4919.81
587.86	4702.14
588.02	4407.23
588.18	4444.68
588.34	4163.81
588.49	3950.82
588.65	3728.47
588.81	3517.83
588.97	3667.62
589.13	3681.66
589.29	3585.70
589.45	3660.60
589.61	3726.13
589.77	3819.75
589.93	3847.84
590.08	4023.38
590.24	4117.00
590.40	4292.54
590.56	4121.68
590.72	4229.35
590.88	4161.47
591.04	4142.75
591.20	4180.20
591.35	4088.92
591.51	4053.81
591.67	3997.64
591.83	4063.17
591.99	4102.96
592.15	4210.62
592.31	4484.47
592.46	4454.04
592.62	4390.84
592.78	4418.93
592.94	4475.10
593.10	4489.15
593.26	4648.30
593.41	4655.33
593.57	4594.47
593.73	4276.16
593.89	4154.45
594.05	3964.87
594.20	3997.64
594.36	3726.13
594.52	3801.03
594.68	3817.41
594.84	4065.51
594.99	4114.66
595.15	4248.07
595.31	4329.99
595.47	4194.24
595.62	4166.15
595.78	4376.80
595.94	4276.16
596.10	4372.12
596.25	4203.60
596.41	4163.81
596.57	3997.64
596.73	4238.71
596.88	4205.94
597.04	4210.62
597.20	4227.01
597.36	4037.42
597.51	4266.80
597.67	4269.14
