SpectraSuite Data File
++++++++++++++++++++++++++++++++++++
Date: Fri Oct 04 11:44:26 GMT-05:00 2013
User: price-jones
Dark Spectrum Present: No
Reference Spectrum Present: No
Number of Sampled Component Spectra: 1
Spectrometers: USB2+H05261
Integration Time (usec): 100000 (USB2+H05261)
Spectra Averaged: 1 (USB2+H05261)
Boxcar Smoothing: 0 (USB2+H05261)
Correct for Electrical Dark: No (USB2+H05261)
Strobe/Lamp Enabled: No (USB2+H05261)
Correct for Detector Non-linearity: No (USB2+H05261)
Correct for Stray Light: No (USB2+H05261)
Number of Pixels in Processed Spectrum: 2048
>>>>>Begin Processed Spectral Data<<<<<
365.73	30.43
365.92	30.43
366.12	30.43
366.32	11.70
366.52	0.00
366.72	0.00
366.91	0.00
367.11	0.00
367.31	0.00
367.51	0.00
367.70	0.00
367.90	0.00
368.10	0.00
368.30	0.00
368.49	0.00
368.69	0.00
368.89	0.00
369.09	0.00
369.28	0.00
369.48	0.00
369.68	0.00
369.87	0.00
370.07	0.00
370.27	0.00
370.47	30.43
370.66	182.56
370.86	205.97
371.06	353.42
371.25	283.20
371.45	184.90
371.65	222.35
371.84	313.63
372.04	236.39
372.24	238.73
372.44	205.97
372.63	327.68
372.83	264.48
373.03	290.23
373.22	257.46
373.42	245.76
373.62	273.84
373.81	264.48
374.01	299.59
374.21	304.27
374.40	299.59
374.60	290.23
374.79	322.99
374.99	313.63
375.19	388.53
375.38	372.15
375.58	348.74
375.78	454.06
375.97	330.02
376.17	330.02
376.37	318.31
376.56	257.46
376.76	360.44
376.95	341.72
377.15	449.38
377.35	437.68
377.54	346.40
377.74	365.12
377.93	404.91
378.13	395.55
378.33	421.30
378.52	414.27
378.72	308.95
378.91	411.93
379.11	346.40
379.31	292.57
379.50	311.29
379.70	248.10
379.89	397.89
380.09	344.06
380.28	320.65
380.48	402.57
380.68	365.12
380.87	344.06
381.07	374.49
381.26	362.78
381.46	353.42
381.65	325.33
381.85	315.97
382.04	301.93
382.24	297.25
382.43	297.25
382.63	257.46
382.83	236.39
383.02	348.74
383.22	262.14
383.41	292.57
383.61	315.97
383.80	332.36
384.00	362.78
384.19	341.72
384.39	447.04
384.58	400.23
384.78	367.46
384.97	393.21
385.17	402.57
385.36	304.27
385.56	337.04
385.75	322.99
385.95	337.04
386.14	390.87
386.34	355.76
386.53	397.89
386.72	369.80
386.92	379.17
387.11	390.87
387.31	414.27
387.50	362.78
387.70	414.27
387.89	395.55
388.09	346.40
388.28	379.17
388.48	306.61
388.67	437.68
388.86	409.59
389.06	486.83
389.25	503.22
389.45	430.66
389.64	411.93
389.84	519.60
390.03	545.34
390.22	397.89
390.42	503.22
390.61	449.38
390.81	433.00
391.00	535.98
391.19	594.50
391.39	505.56
391.58	458.74
391.78	418.96
391.97	505.56
392.16	411.93
392.36	493.85
392.55	339.38
392.75	306.61
392.94	273.84
393.13	245.76
393.33	220.01
393.52	304.27
393.71	472.79
393.91	386.19
394.10	505.56
394.29	505.56
394.49	531.30
394.68	540.66
394.88	603.86
395.07	622.58
395.26	531.30
395.46	477.47
395.65	641.31
395.84	545.34
396.04	468.11
396.23	390.87
396.42	318.31
396.62	245.76
396.81	297.25
397.00	397.89
397.19	468.11
397.39	547.69
397.58	613.22
397.77	610.88
397.97	660.03
398.16	622.58
398.35	725.57
398.55	617.90
398.74	751.31
398.93	807.48
399.12	690.46
399.32	704.50
399.51	678.76
399.70	727.91
399.90	709.18
400.09	690.46
400.28	798.12
400.47	772.38
400.67	826.21
400.86	784.08
401.05	849.61
401.24	758.33
401.44	791.10
401.63	774.72
401.82	807.48
402.01	739.61
402.21	842.59
402.40	763.01
402.59	760.67
402.78	772.38
402.97	744.29
403.17	669.39
403.36	823.87
403.55	800.46
403.74	847.27
403.93	903.45
404.13	854.30
404.32	779.40
404.51	821.53
404.70	877.70
404.89	786.42
405.09	856.64
405.28	786.42
405.47	802.80
405.66	737.27
405.85	716.20
406.05	795.78
406.24	805.14
406.43	814.51
406.62	847.27
406.81	917.49
407.00	781.74
407.20	826.21
407.39	856.64
407.58	830.89
407.77	779.40
407.96	793.44
408.15	821.53
408.34	905.79
408.54	901.11
408.73	863.66
408.92	926.85
409.11	910.47
409.30	781.74
409.49	863.66
409.68	711.52
409.87	734.93
410.07	746.63
410.26	842.59
410.45	840.25
410.64	880.04
410.83	940.90
411.02	856.64
411.21	903.45
411.40	868.34
411.59	999.41
411.78	964.30
411.98	880.04
412.17	919.83
412.36	997.07
412.55	945.58
412.74	926.85
412.93	968.98
413.12	880.04
413.31	1015.79
413.50	1036.86
413.69	968.98
413.88	999.41
414.07	952.60
414.26	945.58
414.45	910.47
414.64	1048.56
414.83	1004.09
415.02	968.98
415.22	1025.15
415.41	973.66
415.60	1004.09
415.79	1001.75
415.98	1100.05
416.17	1107.07
416.36	1083.67
416.55	1001.75
416.74	1013.45
416.93	1018.13
417.12	1032.18
417.31	1015.79
417.50	903.45
417.69	1034.52
417.88	1039.20
418.07	1039.20
418.26	1067.28
418.45	987.71
418.64	1050.90
418.83	1083.67
419.02	1097.71
419.21	1095.37
419.39	1036.86
419.58	957.28
419.77	1020.47
419.96	905.79
420.15	1027.50
420.34	1069.62
420.53	1083.67
420.72	1086.01
420.91	1121.12
421.10	1102.39
421.29	1151.54
421.48	1057.92
421.67	1046.22
421.86	1076.65
422.05	1004.09
422.24	945.58
422.43	978.34
422.61	950.26
422.80	1109.41
422.99	1076.65
423.18	1046.22
423.37	1064.94
423.56	992.39
423.75	983.02
423.94	957.28
424.13	973.66
424.32	1018.13
424.50	938.55
424.69	1043.88
424.88	1076.65
425.07	924.51
425.26	1083.67
425.45	1050.90
425.64	1097.71
425.83	1039.20
426.01	1034.52
426.20	1107.07
426.39	1088.35
426.58	1018.13
426.77	940.90
426.96	947.92
427.15	882.38
427.33	985.37
427.52	1039.20
427.71	992.39
427.90	1027.50
428.09	968.98
428.28	1015.79
428.46	1008.77
428.65	1008.77
428.84	992.39
429.03	1088.35
429.22	952.60
429.40	896.43
429.59	828.55
429.78	763.01
429.97	716.20
430.16	767.70
430.34	807.48
430.53	758.33
430.72	767.70
430.91	863.66
431.10	880.04
431.28	1086.01
431.47	1193.67
431.66	1261.55
431.85	1057.92
432.03	992.39
432.22	1069.62
432.41	1050.90
432.60	1062.60
432.79	1135.16
432.97	1090.69
433.16	1086.01
433.35	1074.31
433.54	1039.20
433.72	908.13
433.91	992.39
434.10	1048.56
434.28	1116.44
434.47	1090.69
434.66	1186.65
434.85	1067.28
435.03	1181.97
435.22	1371.55
435.41	1511.99
435.59	1568.16
435.78	1483.90
435.97	1327.08
436.16	1338.79
436.34	1247.51
436.53	1263.89
436.72	1291.98
436.90	1123.46
437.09	1198.35
437.28	1142.18
437.46	1266.23
437.65	1179.63
437.84	1153.88
438.02	1018.13
438.21	985.37
438.40	968.98
438.58	1137.50
438.77	1090.69
438.96	1076.65
439.14	1235.80
439.33	1146.86
439.52	1301.34
439.70	1210.06
439.89	1306.02
440.08	1214.74
440.26	1259.21
440.45	1217.08
440.63	1317.72
440.82	1268.57
441.01	1310.70
441.19	1245.16
441.38	1350.49
441.57	1486.24
441.75	1458.15
441.94	1387.94
442.12	1416.02
442.31	1416.02
442.50	1406.66
442.68	1409.00
442.87	1268.57
443.05	1299.00
443.24	1324.74
443.43	1474.54
443.61	1514.33
443.80	1511.99
443.98	1341.13
444.17	1362.19
444.35	1465.18
444.54	1390.28
444.73	1416.02
444.91	1366.87
445.10	1282.61
445.28	1287.29
445.47	1172.61
445.65	1334.11
445.84	1306.02
446.02	1327.08
446.21	1423.05
446.39	1338.79
446.58	1413.68
446.77	1378.58
446.95	1327.08
447.14	1511.99
447.32	1519.01
447.51	1502.62
447.69	1387.94
447.88	1376.24
448.06	1430.07
448.25	1416.02
448.43	1472.20
448.62	1458.15
448.80	1385.60
448.99	1406.66
449.17	1430.07
449.36	1392.62
449.54	1446.45
449.73	1542.41
449.91	1561.14
450.10	1439.43
450.28	1558.80
450.46	1565.82
450.65	1565.82
450.83	1540.07
451.02	1551.78
451.20	1479.22
451.39	1549.43
451.57	1540.07
451.76	1469.86
451.94	1416.02
452.13	1476.88
452.31	1387.94
452.49	1371.55
452.68	1362.19
452.86	1430.07
453.05	1439.43
453.23	1378.58
453.42	1469.86
453.60	1495.60
453.78	1544.75
453.97	1509.65
454.15	1406.66
454.34	1568.16
454.52	1411.34
454.70	1380.92
454.89	1462.83
455.07	1511.99
455.26	1462.83
455.44	1469.86
455.62	1549.43
455.81	1556.46
455.99	1584.54
456.17	1439.43
456.36	1479.22
456.54	1561.14
456.73	1561.14
456.91	1488.58
457.09	1439.43
457.28	1558.80
457.46	1542.41
457.64	1547.09
457.83	1547.09
458.01	1439.43
458.19	1614.97
458.38	1549.43
458.56	1577.52
458.74	1565.82
458.93	1561.14
459.11	1502.62
459.29	1526.03
459.48	1490.92
459.66	1516.67
459.84	1654.76
460.03	1713.27
460.21	1589.22
460.39	1511.99
460.57	1549.43
460.76	1558.80
460.94	1598.59
461.12	1715.61
461.31	1631.35
461.49	1575.18
461.67	1612.63
461.85	1647.74
462.04	1659.44
462.22	2073.71
462.40	1666.46
462.59	1682.85
462.77	1638.38
462.95	1551.78
463.13	1650.08
463.32	1556.46
463.50	1647.74
463.68	1600.93
463.86	1605.61
464.05	1479.22
464.23	1474.54
464.41	1523.69
464.59	1472.20
464.78	1624.33
464.96	1598.59
465.14	1544.75
465.32	1598.59
465.50	1605.61
465.69	1741.36
465.87	1530.71
466.05	1638.38
466.23	1547.09
466.41	1451.13
466.60	1406.66
466.78	1448.79
466.96	1600.93
467.14	1472.20
467.32	1629.01
467.51	1544.75
467.69	1521.35
467.87	1533.05
468.05	1596.25
468.23	1603.27
468.41	1600.93
468.60	1582.20
468.78	1614.97
468.96	1647.74
469.14	1556.46
469.32	1617.31
469.50	1551.78
469.69	1633.69
469.87	1591.56
470.05	1636.03
470.23	1465.18
470.41	1511.99
470.59	1554.12
470.77	1526.03
470.95	1603.27
471.14	1685.19
471.32	1533.05
471.50	1650.08
471.68	1675.82
471.86	1682.85
472.04	1650.08
472.22	1795.19
472.40	1598.59
472.58	1535.39
472.77	1640.72
472.95	1710.93
473.13	1619.65
473.31	1675.82
473.49	1661.78
473.67	1739.02
473.85	1746.04
474.03	1724.97
474.21	1687.53
474.39	1746.04
474.57	1734.34
474.75	1799.87
474.93	1785.83
475.12	1689.87
475.30	1678.16
475.48	1668.80
475.66	1764.76
475.84	1713.27
476.02	1685.19
476.20	1668.80
476.38	1600.93
476.56	1802.21
476.74	1722.63
476.92	1750.72
477.10	1853.70
477.28	1825.62
477.46	1799.87
477.64	1809.23
477.82	1811.57
478.00	1888.81
478.18	1870.09
478.36	1790.51
478.54	1816.26
478.72	1879.45
478.90	1818.60
479.08	1898.17
479.26	1916.90
479.44	1898.17
479.62	1982.43
479.80	1994.14
479.98	1872.43
480.16	2012.86
480.34	1923.92
480.52	1944.99
480.70	1994.14
480.88	2012.86
481.06	2092.44
481.24	2078.40
481.41	2113.50
481.59	2069.03
481.77	2106.48
481.95	2040.95
482.13	2047.97
482.31	2057.33
482.49	2083.08
482.67	2197.76
482.85	2134.57
483.03	2057.33
483.21	2069.03
483.39	2265.64
483.57	2113.50
483.74	2146.27
483.92	2090.10
484.10	2146.27
484.28	2249.25
484.46	2104.14
484.64	2162.66
484.82	2232.87
485.00	2312.45
485.18	2186.06
485.35	2104.14
485.53	1912.22
485.71	1912.22
485.89	1771.79
486.07	1664.12
486.25	2052.65
486.43	2104.14
486.61	2211.81
486.78	2099.46
486.96	2092.44
487.14	2181.38
487.32	2216.49
487.50	2312.45
487.68	2424.80
487.85	2427.14
488.03	2324.15
488.21	2462.24
488.39	2326.49
488.57	2300.75
488.75	2260.96
488.92	2513.74
489.10	2429.48
489.28	2502.03
489.46	2623.74
489.64	2640.12
489.81	2740.77
489.99	2572.25
490.17	2457.56
490.35	2698.64
490.53	2590.97
490.70	2497.35
490.88	2534.80
491.06	2530.12
491.24	2572.25
491.41	2555.86
491.59	2532.46
491.77	2331.17
491.95	2520.76
492.13	2466.92
492.30	2654.17
492.48	2637.78
492.66	2665.87
492.84	2705.66
493.01	2640.12
493.19	2670.55
493.37	2637.78
493.54	2534.80
493.72	2691.62
493.90	2731.41
494.08	2808.64
494.25	2918.65
494.43	2967.80
494.61	2937.37
494.79	2843.75
494.96	2773.53
495.14	2885.88
495.32	2836.73
495.49	2595.65
495.67	2841.41
495.85	2764.17
496.02	3007.59
496.20	3021.63
496.38	2855.45
496.55	2829.71
496.73	3042.70
496.91	2963.12
497.09	3091.85
497.26	2960.78
497.44	3063.76
497.62	2906.95
497.79	2780.56
497.97	2799.28
498.14	2825.03
498.32	2803.96
498.50	2906.95
498.67	2958.44
498.85	2977.16
499.03	3026.31
499.20	2946.73
499.38	2993.55
499.56	3115.25
499.73	3082.49
499.91	2984.18
500.08	2951.42
500.26	2836.73
500.44	2794.60
500.61	2876.52
500.79	2785.24
500.97	2768.85
501.14	2832.05
501.32	2768.85
501.49	2780.56
501.67	2822.69
501.84	2911.63
502.02	2761.83
502.20	2970.14
502.37	2736.09
502.55	2839.07
502.72	2923.33
502.90	3012.27
503.07	3087.17
503.25	2935.03
503.43	2729.06
503.60	2747.79
503.78	2651.83
503.95	2633.10
504.13	2871.84
504.30	2958.44
504.48	2979.50
504.65	3026.31
504.83	2925.67
505.01	2956.10
505.18	3033.33
505.36	3110.57
505.53	3023.97
505.71	3047.38
505.88	3190.15
506.06	3138.66
506.23	3157.38
506.41	2897.58
506.58	2874.18
506.76	3133.98
506.93	3084.83
507.11	3054.40
507.28	2888.22
507.46	2895.24
507.63	2946.73
507.81	2932.69
507.98	2925.67
508.16	2916.31
508.33	3126.96
508.50	3108.23
508.68	3131.64
508.85	3145.68
509.03	3169.09
509.20	3187.81
509.38	3353.99
509.55	3066.10
509.73	2984.18
509.90	3101.21
510.08	2967.80
510.25	2965.46
510.42	3150.36
510.60	3155.04
510.77	3136.32
510.95	3103.55
511.12	3145.68
511.30	3276.75
511.47	3342.28
511.64	3281.43
511.82	3288.45
511.99	3316.54
512.17	3089.51
512.34	3042.70
512.51	3016.95
512.69	3124.62
512.86	3148.02
513.04	3225.26
513.21	3208.87
513.38	3185.47
513.56	3141.00
513.73	2881.20
513.90	2946.73
514.08	3143.34
514.25	3101.21
514.43	3150.36
514.60	3162.06
514.77	3155.04
514.95	3166.74
515.12	3056.74
515.29	3173.77
515.47	3159.72
515.64	3330.58
515.81	3234.62
515.99	3171.43
516.16	3047.38
516.33	2871.84
516.51	2530.12
516.68	2586.29
516.85	2539.48
517.03	2647.15
517.20	2867.16
517.37	3056.74
517.54	3052.06
517.72	3211.22
517.89	2923.33
518.06	2602.68
518.24	2595.65
518.41	2953.76
518.58	3225.26
518.75	3126.96
518.93	3019.29
519.10	3176.11
519.27	3101.21
519.45	3061.42
519.62	3075.46
519.79	3185.47
519.96	3281.43
520.14	3283.77
520.31	3192.49
520.48	3150.36
520.65	3183.13
520.83	3323.56
521.00	3302.50
521.17	3382.07
521.34	3215.90
521.52	3272.07
521.69	3377.39
521.86	3431.23
522.03	3379.73
522.20	3297.81
522.38	3087.17
522.55	3047.38
522.72	3035.67
522.89	3316.54
523.07	3330.58
523.24	3361.01
523.41	3407.82
523.58	3323.56
523.75	3328.24
523.92	3449.95
524.10	3368.03
524.27	3379.73
524.44	3365.69
524.61	3337.60
524.78	3330.58
524.96	3318.88
525.13	3227.60
525.30	3412.50
525.47	3445.27
525.64	3445.27
525.81	3353.99
525.98	3126.96
526.16	3012.27
526.33	3052.06
526.50	2928.01
526.67	2855.45
526.84	3028.65
527.01	3038.02
527.18	3091.85
527.36	3208.87
527.53	3194.83
527.70	3440.59
527.87	3171.43
528.04	3234.62
528.21	3307.18
528.38	3353.99
528.55	3473.36
528.72	3566.98
528.89	3471.01
529.07	3449.95
529.24	3342.28
529.41	3400.80
529.58	3323.56
529.75	3283.77
529.92	3344.63
530.09	3286.11
530.26	3442.93
530.43	3548.25
530.60	3447.61
530.77	3405.48
530.94	3641.87
531.11	3508.46
531.28	3358.67
531.46	3356.33
531.63	3506.12
531.80	3386.76
531.97	3365.69
532.14	3386.76
532.31	3204.19
532.48	3133.98
532.65	3211.22
532.82	3159.72
532.99	3311.86
533.16	3363.35
533.33	3459.31
533.50	3384.41
533.67	3440.59
533.84	3180.79
534.01	3330.58
534.18	3253.34
534.35	3288.45
534.52	3208.87
534.69	3421.86
534.86	3405.48
535.03	3407.82
535.20	3454.63
535.37	3672.30
535.54	3536.55
535.71	3426.54
535.88	3585.70
536.05	3400.80
536.22	3337.60
536.38	3358.67
536.55	3456.97
536.72	3286.11
536.89	3229.94
537.06	3243.98
537.23	3384.41
537.40	3522.51
537.57	3339.94
537.74	3471.01
537.91	3447.61
538.08	3361.01
538.25	3503.78
538.42	3489.74
538.59	3555.27
538.75	3204.19
538.92	3363.35
539.09	3365.69
539.26	3351.65
539.43	3398.46
539.60	3262.71
539.77	3307.18
539.94	3400.80
540.11	3375.05
540.28	3269.73
540.44	3328.24
540.61	3255.69
540.78	3353.99
540.95	3330.58
541.12	3538.89
541.29	3634.85
541.46	3618.47
541.62	3651.24
541.79	3452.29
541.96	3545.91
542.13	3471.01
542.30	3501.44
542.47	3698.05
542.63	3658.26
542.80	3496.76
542.97	3559.95
543.14	3410.16
543.31	3459.31
543.48	3370.37
543.64	3674.64
543.81	3672.30
543.98	3669.96
544.15	3742.52
544.32	3524.85
544.48	3543.57
544.65	3585.70
544.82	3761.24
544.99	3733.15
545.16	3597.40
545.32	3536.55
545.49	3803.37
545.66	4236.37
545.83	4269.14
546.00	4119.34
546.16	3833.80
546.33	3590.38
546.50	3606.77
546.67	3639.53
546.83	3487.40
547.00	3447.61
547.17	3372.71
547.34	3384.41
547.50	3407.82
547.67	3353.99
547.84	3400.80
548.00	3325.90
548.17	3452.29
548.34	3527.19
548.51	3375.05
548.67	3438.25
548.84	3332.92
549.01	3431.23
549.18	3454.63
549.34	3428.88
549.51	3435.91
549.68	3513.14
549.84	3297.81
550.01	3279.09
550.18	3276.75
550.34	3433.57
550.51	3384.41
550.68	3325.90
550.84	3260.37
551.01	3304.84
551.18	3311.86
551.34	3304.84
551.51	3431.23
551.68	3396.12
551.84	3365.69
552.01	3330.58
552.18	3342.28
552.34	3272.07
552.51	3239.30
552.68	3124.62
552.84	3232.28
553.01	3274.41
553.18	3269.73
553.34	3461.65
553.51	3307.18
553.67	3239.30
553.84	3328.24
554.01	3297.81
554.17	3283.77
554.34	3349.31
554.51	3314.20
554.67	3328.24
554.84	3375.05
555.00	3365.69
555.17	3255.69
555.33	3344.63
555.50	3227.60
555.67	3148.02
555.83	3232.28
556.00	3232.28
556.16	3297.81
556.33	3131.64
556.50	3136.32
556.66	3197.17
556.83	3101.21
556.99	3052.06
557.16	3096.53
557.32	3110.57
557.49	3155.04
557.65	3124.62
557.82	3316.54
557.98	3208.87
558.15	3119.93
558.32	3056.74
558.48	3016.95
558.65	2925.67
558.81	3101.21
558.98	3101.21
559.14	3178.45
559.31	3126.96
559.47	3075.46
559.64	3026.31
559.80	3141.00
559.97	3056.74
560.13	3089.51
560.30	3180.79
560.46	3215.90
560.63	3122.27
560.79	3173.77
560.96	3173.77
561.12	2967.80
561.29	2977.16
561.45	2974.82
561.61	3052.06
561.78	3316.54
561.94	3070.78
562.11	3070.78
562.27	2939.71
562.44	3028.65
562.60	3192.49
562.77	3187.81
562.93	3101.21
563.10	3166.74
563.26	3194.83
563.42	2958.44
563.59	3063.76
563.75	3049.72
563.92	3073.12
564.08	3042.70
564.24	3094.19
564.41	3101.21
564.57	3028.65
564.74	3068.44
564.90	3073.12
565.07	3059.08
565.23	3040.36
565.39	2967.80
565.56	2869.50
565.72	2857.79
565.88	2970.14
566.05	2862.48
566.21	2864.82
566.38	2895.24
566.54	2993.55
566.70	2993.55
566.87	3056.74
567.03	3033.33
567.19	3038.02
567.36	3056.74
567.52	3040.36
567.68	2909.29
567.85	2897.58
568.01	2848.43
568.17	2715.02
568.34	2785.24
568.50	2832.05
568.66	2766.51
568.83	2810.98
568.99	2686.94
569.15	2806.30
569.32	2892.90
569.48	2708.00
569.64	2747.79
569.81	2789.92
569.97	2757.15
570.13	2827.37
570.30	2672.89
570.46	2782.90
570.62	2717.36
570.78	2635.44
570.95	2785.24
571.11	2853.11
571.27	2724.38
571.43	2663.53
571.60	2649.49
571.76	2722.04
571.92	2857.79
572.09	2810.98
572.25	2925.67
572.41	2813.32
572.57	2832.05
572.74	3007.59
572.90	2869.50
573.06	2731.41
573.22	2775.88
573.38	2780.56
573.55	2885.88
573.71	2775.88
573.87	2846.09
574.03	2757.15
574.20	2654.17
574.36	2743.11
574.52	2623.74
574.68	2738.43
574.84	2780.56
575.01	2738.43
575.17	2663.53
575.33	2602.68
575.49	2789.92
575.65	2588.63
575.82	2785.24
575.98	2705.66
576.14	2663.53
576.30	2750.13
576.46	2846.09
576.62	2970.14
576.79	2813.32
576.95	2801.62
577.11	2733.75
577.27	2736.09
577.43	2750.13
577.59	2773.53
577.75	2595.65
577.92	2658.85
578.08	2583.95
578.24	2661.19
578.40	2803.96
578.56	2792.26
578.72	2733.75
578.88	2932.69
579.04	2932.69
579.21	2789.92
579.37	2757.15
579.53	2700.98
579.69	2867.16
579.85	2773.53
580.01	2808.64
580.17	2825.03
580.33	2846.09
580.49	2768.85
580.65	2605.02
580.82	2740.77
580.98	2698.64
581.14	2654.17
581.30	2773.53
581.46	2686.94
581.62	2754.81
581.78	2689.28
581.94	2747.79
582.10	2771.19
582.26	2822.69
582.42	2787.58
582.58	2836.73
582.74	2885.88
582.90	2703.32
583.06	2818.00
583.22	2822.69
583.38	2686.94
583.54	2813.32
583.70	2675.23
583.86	2715.02
584.02	2759.49
584.18	2761.83
584.34	2909.29
584.50	2780.56
584.66	2818.00
584.82	2696.30
584.98	2743.11
585.14	2738.43
585.30	2679.91
585.46	2647.15
585.62	2649.49
585.78	2593.31
585.94	2612.04
586.10	2602.68
586.26	2644.81
586.42	2731.41
586.58	2576.93
586.74	2766.51
586.90	2696.30
587.06	2710.34
587.22	2612.04
587.38	2497.35
587.54	2574.59
587.70	2480.97
587.86	2462.24
588.02	2401.39
588.18	2279.68
588.34	2298.41
588.49	2157.97
588.65	2005.84
588.81	1891.15
588.97	1961.37
589.13	1984.77
589.29	1994.14
589.45	1956.69
589.61	1966.05
589.77	2012.86
589.93	2019.88
590.08	2101.80
590.24	2207.13
590.40	2246.91
590.56	2211.81
590.72	2260.96
590.88	2298.41
591.04	2209.47
591.20	2167.34
591.35	2195.42
591.51	2230.53
591.67	2160.31
591.83	2078.40
591.99	2172.02
592.15	2167.34
592.31	2225.85
592.46	2298.41
592.62	2235.21
592.78	2263.30
592.94	2235.21
593.10	2373.30
593.26	2347.56
593.41	2347.56
593.57	2326.49
593.73	2176.70
593.89	2244.57
594.05	2071.37
594.20	2188.40
594.36	2125.21
594.52	1952.01
594.68	2038.61
594.84	2017.54
594.99	2188.40
595.15	2354.58
595.31	2275.00
595.47	2253.94
595.62	2237.55
595.78	2239.89
595.94	2373.30
596.10	2450.54
596.25	2260.96
596.41	2270.32
596.57	2167.34
596.73	2169.68
596.88	2193.08
597.04	2237.55
597.20	2293.72
597.36	2282.02
597.51	2289.04
597.67	2239.89
597.83	2265.64
597.99	2207.13
598.14	2190.74
598.30	2396.71
598.46	2312.45
598.61	2314.79
598.77	2230.53
598.93	2260.96
599.09	2427.14
599.24	2354.58
