SpectraSuite Data File
++++++++++++++++++++++++++++++++++++
Date: Fri Oct 04 11:44:23 GMT-05:00 2013
User: price-jones
Dark Spectrum Present: No
Reference Spectrum Present: No
Number of Sampled Component Spectra: 1
Spectrometers: USB2+H05261
Integration Time (usec): 100000 (USB2+H05261)
Spectra Averaged: 1 (USB2+H05261)
Boxcar Smoothing: 0 (USB2+H05261)
Correct for Electrical Dark: No (USB2+H05261)
Strobe/Lamp Enabled: No (USB2+H05261)
Correct for Detector Non-linearity: No (USB2+H05261)
Correct for Stray Light: No (USB2+H05261)
Number of Pixels in Processed Spectrum: 2048
>>>>>Begin Processed Spectral Data<<<<<
365.73	107.66
365.92	107.66
366.12	107.66
366.32	0.00
366.52	0.00
366.72	0.00
366.91	0.00
367.11	0.00
367.31	0.00
367.51	0.00
367.70	0.00
367.90	0.00
368.10	0.00
368.30	0.00
368.49	0.00
368.69	0.00
368.89	0.00
369.09	0.00
369.28	0.00
369.48	0.00
369.68	0.00
369.87	0.00
370.07	58.51
370.27	0.00
370.47	60.85
370.66	294.91
370.86	376.83
371.06	390.87
371.25	428.32
371.45	428.32
371.65	330.02
371.84	386.19
372.04	327.68
372.24	482.15
372.44	404.91
372.63	472.79
372.83	421.30
373.03	339.38
373.22	383.85
373.42	407.25
373.62	463.43
373.81	528.96
374.01	442.36
374.21	386.19
374.40	496.19
374.60	390.87
374.79	472.79
374.99	503.22
375.19	533.64
375.38	559.39
375.58	545.34
375.78	531.30
375.97	559.39
376.17	596.84
376.37	472.79
376.56	484.49
376.76	561.73
376.95	643.65
377.15	671.73
377.35	620.24
377.54	676.41
377.74	685.78
377.93	636.63
378.13	655.35
378.33	669.39
378.52	622.58
378.72	688.12
378.91	561.73
379.11	566.41
379.31	521.94
379.50	475.13
379.70	514.92
379.89	587.47
380.09	545.34
380.28	543.00
380.48	634.29
380.68	601.52
380.87	589.82
381.07	608.54
381.26	648.33
381.46	472.79
381.65	486.83
381.85	430.66
382.04	573.43
382.24	505.56
382.43	484.49
382.63	461.09
382.83	475.13
383.02	437.68
383.22	437.68
383.41	458.74
383.61	465.77
383.80	493.85
384.00	568.75
384.19	664.71
384.39	688.12
384.58	690.46
384.78	660.03
384.97	603.86
385.17	554.71
385.36	608.54
385.56	564.07
385.75	552.37
385.95	678.76
386.14	697.48
386.34	622.58
386.53	648.33
386.72	610.88
386.92	554.71
387.11	641.31
387.31	671.73
387.50	678.76
387.70	557.05
387.89	608.54
388.09	613.22
388.28	627.26
388.48	650.67
388.67	760.67
388.86	751.31
389.06	767.70
389.25	830.89
389.45	819.19
389.64	868.34
389.84	786.42
390.03	788.76
390.22	816.85
390.42	809.83
390.61	793.44
390.81	840.25
391.00	896.43
391.19	922.17
391.39	943.24
391.58	851.96
391.78	774.72
391.97	844.93
392.16	709.18
392.36	711.52
392.55	613.22
392.75	543.00
392.94	461.09
393.13	500.87
393.33	423.64
393.52	514.92
393.71	692.80
393.91	699.82
394.10	711.52
394.29	774.72
394.49	861.32
394.68	947.92
394.88	964.30
395.07	983.02
395.26	1004.09
395.46	938.55
395.65	924.51
395.84	791.10
396.04	770.04
396.23	617.90
396.42	571.09
396.62	559.39
396.81	543.00
397.00	697.48
397.19	826.21
397.39	847.27
397.58	1109.41
397.77	994.73
397.97	1095.37
398.16	1198.35
398.35	1137.50
398.55	1256.87
398.74	1224.10
398.93	1254.53
399.12	1240.48
399.32	1165.59
399.51	1231.12
399.70	1282.61
399.90	1261.55
400.09	1256.87
400.28	1301.34
400.47	1284.95
400.67	1441.77
400.86	1324.74
401.05	1385.60
401.24	1423.05
401.44	1413.68
401.63	1277.93
401.82	1448.79
402.01	1441.77
402.21	1490.92
402.40	1467.52
402.59	1341.13
402.78	1306.02
402.97	1259.21
403.17	1320.06
403.36	1352.83
403.55	1401.98
403.74	1526.03
403.93	1437.09
404.13	1427.73
404.32	1343.47
404.51	1334.11
404.70	1439.43
404.89	1413.68
405.09	1497.94
405.28	1322.40
405.47	1299.00
405.66	1399.64
405.85	1186.65
406.05	1420.71
406.24	1343.47
406.43	1420.71
406.62	1511.99
406.81	1521.35
407.00	1357.51
407.20	1341.13
407.39	1387.94
407.58	1439.43
407.77	1455.81
407.96	1579.86
408.15	1495.60
408.34	1519.01
408.54	1554.12
408.73	1579.86
408.92	1572.84
409.11	1549.43
409.30	1446.45
409.49	1420.71
409.68	1397.30
409.87	1306.02
410.07	1362.19
410.26	1411.34
410.45	1530.71
410.64	1519.01
410.83	1556.46
411.02	1551.78
411.21	1703.91
411.40	1636.03
411.59	1661.78
411.78	1577.52
411.98	1554.12
412.17	1699.23
412.36	1647.74
412.55	1757.74
412.74	1614.97
412.93	1645.40
413.12	1682.85
413.31	1802.21
413.50	1699.23
413.69	1764.76
413.88	1739.02
414.07	1614.97
414.26	1692.21
414.45	1678.16
414.64	1813.92
414.83	1816.26
415.02	1692.21
415.22	1732.00
415.41	1776.47
415.60	1748.38
415.79	1820.94
415.98	1944.99
416.17	1858.39
416.36	1944.99
416.55	1844.34
416.74	1769.44
416.93	1664.12
417.12	1696.89
417.31	1748.38
417.50	1748.38
417.69	1816.26
417.88	1933.28
418.07	1874.77
418.26	1849.02
418.45	1785.83
418.64	1785.83
418.83	1851.36
419.02	1919.24
419.21	1842.00
419.39	1682.85
419.58	1703.91
419.77	1699.23
419.96	1795.19
420.15	1933.28
420.34	1975.41
420.53	2087.76
420.72	2104.14
420.91	1914.56
421.10	1930.94
421.29	1959.03
421.48	1973.07
421.67	2022.22
421.86	1933.28
422.05	1743.70
422.24	1621.99
422.43	1619.65
422.61	1872.43
422.80	1870.09
422.99	1954.35
423.18	1860.73
423.37	1771.79
423.56	1776.47
423.75	1870.09
423.94	1865.41
424.13	1858.39
424.32	1827.96
424.50	1790.51
424.69	1790.51
424.88	1764.76
425.07	1757.74
425.26	1842.00
425.45	1785.83
425.64	1732.00
425.83	1750.72
426.01	1792.85
426.20	1959.03
426.39	1844.34
426.58	1827.96
426.77	1708.59
426.96	1631.35
427.15	1612.63
427.33	1720.29
427.52	1795.19
427.71	1860.73
427.90	1865.41
428.09	1830.30
428.28	1750.72
428.46	1856.04
428.65	1781.15
428.84	1762.42
429.03	1750.72
429.22	1593.90
429.40	1493.26
429.59	1479.22
429.78	1336.45
429.97	1308.36
430.16	1266.23
430.34	1371.55
430.53	1324.74
430.72	1310.70
430.91	1416.02
431.10	1666.46
431.28	1853.70
431.47	2040.95
431.66	2214.15
431.85	1858.39
432.03	1877.11
432.22	1825.62
432.41	1774.13
432.60	1914.56
432.79	2076.06
432.97	2162.66
433.16	2012.86
433.35	1858.39
433.54	1851.36
433.72	1671.14
433.91	1579.86
434.10	1774.13
434.28	2022.22
434.47	1949.67
434.66	2066.69
434.85	2064.35
435.03	1977.75
435.22	2296.07
435.41	2492.67
435.59	2509.05
435.78	2375.64
435.97	2335.85
436.16	2186.06
436.34	2249.25
436.53	2279.68
436.72	2225.85
436.90	2069.03
437.09	2026.90
437.28	2029.24
437.46	2094.78
437.65	2101.80
437.84	1982.43
438.02	1769.44
438.21	1844.34
438.40	1809.23
438.58	1984.77
438.77	2073.71
438.96	2052.65
439.14	2139.25
439.33	2289.04
439.52	2176.70
439.70	2183.72
439.89	2289.04
440.08	2139.25
440.26	1994.14
440.45	2232.87
440.63	2258.62
440.82	2342.88
441.01	2382.67
441.19	2396.71
441.38	2347.56
441.57	2373.30
441.75	2459.90
441.94	2623.74
442.12	2429.48
442.31	2597.99
442.50	2459.90
442.68	2448.20
442.87	2452.88
443.05	2321.81
443.24	2394.37
443.43	2413.09
443.61	2649.49
443.80	2637.78
443.98	2532.46
444.17	2427.14
444.35	2672.89
444.54	2527.78
444.73	2623.74
444.91	2541.82
445.10	2244.57
445.28	2314.79
445.47	2216.49
445.65	2242.23
445.84	2319.47
446.02	2342.88
446.21	2499.69
446.39	2349.90
446.58	2546.50
446.77	2534.80
446.95	2565.23
447.14	2586.29
447.32	2616.72
447.51	2537.14
447.69	2457.56
447.88	2480.97
448.06	2438.84
448.25	2490.33
448.43	2583.95
448.62	2436.50
448.80	2530.12
448.99	2574.59
449.17	2548.84
449.36	2415.43
449.54	2597.99
449.73	2668.21
449.91	2782.90
450.10	2712.68
450.28	2848.43
450.46	2843.75
450.65	2801.62
450.83	2787.58
451.02	2672.89
451.20	2764.17
451.39	2668.21
451.57	2689.28
451.76	2656.51
451.94	2544.16
452.13	2602.68
452.31	2546.50
452.49	2413.09
452.68	2478.63
452.86	2448.20
453.05	2417.77
453.23	2546.50
453.42	2396.71
453.60	2553.52
453.78	2799.28
453.97	2644.81
454.15	2689.28
454.34	2537.14
454.52	2586.29
454.70	2565.23
454.89	2588.63
455.07	2466.92
455.26	2612.04
455.44	2691.62
455.62	2794.60
455.81	2839.07
455.99	2710.34
456.17	2722.04
456.36	2740.77
456.54	2792.26
456.73	2729.06
456.91	2850.77
457.09	2928.01
457.28	2827.37
457.46	2724.38
457.64	2679.91
457.83	2628.42
458.01	2705.66
458.19	2715.02
458.38	2665.87
458.56	2981.84
458.74	2827.37
458.93	2682.25
459.11	2708.00
459.29	2593.31
459.48	2689.28
459.66	2747.79
459.84	2731.41
460.03	2801.62
460.21	2801.62
460.39	2810.98
460.57	2818.00
460.76	2712.68
460.94	2899.92
461.12	2888.22
461.31	2937.37
461.49	2913.97
461.67	2724.38
461.85	2942.05
462.04	2904.60
462.22	3398.46
462.40	2937.37
462.59	2869.50
462.77	2883.54
462.95	2818.00
463.13	2972.48
463.32	2860.13
463.50	2818.00
463.68	2860.13
463.86	2799.28
464.05	2771.19
464.23	2846.09
464.41	2761.83
464.59	2609.70
464.78	2843.75
464.96	2766.51
465.14	2754.81
465.32	2789.92
465.50	2897.58
465.69	2899.92
465.87	2832.05
466.05	2801.62
466.23	2689.28
466.41	2574.59
466.60	2576.93
466.78	2635.44
466.96	2700.98
467.14	2708.00
467.32	2834.39
467.51	2759.49
467.69	2670.55
467.87	2747.79
468.05	2822.69
468.23	2937.37
468.41	2860.13
468.60	2743.11
468.78	2799.28
468.96	2864.82
469.14	2810.98
469.32	2855.45
469.50	2649.49
469.69	2810.98
469.87	2675.23
470.05	2649.49
470.23	2581.61
470.41	2675.23
470.59	2738.43
470.77	2878.86
470.95	2890.56
471.14	2930.35
471.32	2890.56
471.50	3068.44
471.68	3045.04
471.86	3019.29
472.04	2853.11
472.22	3028.65
472.40	2834.39
472.58	2832.05
472.77	2801.62
472.95	2949.08
473.13	2944.39
473.31	2944.39
473.49	2850.77
473.67	2911.63
473.85	2937.37
474.03	3183.13
474.21	3019.29
474.39	3094.19
474.57	3110.57
474.75	3091.85
474.93	3096.53
475.12	2902.26
475.30	3075.46
475.48	3047.38
475.66	3105.89
475.84	3035.67
476.02	3014.61
476.20	2944.39
476.38	2963.12
476.56	2942.05
476.74	3229.94
476.92	3110.57
477.10	3033.33
477.28	3382.07
477.46	3185.47
477.64	3393.78
477.82	3286.11
478.00	3260.37
478.18	3260.37
478.36	3246.32
478.54	3199.51
478.72	3286.11
478.90	3365.69
479.08	3424.20
479.26	3414.84
479.44	3398.46
479.62	3386.76
479.80	3424.20
479.98	3524.85
480.16	3597.40
480.34	3578.68
480.52	3590.38
480.70	3620.81
480.88	3538.89
481.06	3611.45
481.24	3452.29
481.41	3721.45
481.59	3854.86
481.77	3751.88
481.95	3719.11
482.13	3618.47
482.31	3754.22
482.49	3798.69
482.67	3791.67
482.85	3728.47
483.03	3775.28
483.21	3688.68
483.39	3749.54
483.57	3901.67
483.74	3749.54
483.92	3721.45
484.10	3758.90
484.28	3913.38
484.46	3950.82
484.64	3873.59
484.82	3868.91
485.00	3868.91
485.18	3712.09
485.35	3660.60
485.53	3562.30
485.71	3225.26
485.89	3087.17
486.07	3253.34
486.25	3471.01
486.43	3651.24
486.61	3686.34
486.78	3712.09
486.96	3768.26
487.14	3878.27
487.32	3974.23
487.50	4114.66
487.68	4297.22
487.85	4152.11
488.03	4306.59
488.21	4231.69
488.39	4241.05
488.57	4039.76
488.75	4065.51
488.92	4301.90
489.10	4329.99
489.28	4404.89
489.46	4720.86
489.64	4664.69
489.81	4695.11
489.99	4641.28
490.17	4720.86
490.35	4753.63
490.53	4681.07
490.70	4550.00
490.88	4498.51
491.06	4580.43
491.24	4669.37
491.41	4819.16
491.59	4517.23
491.77	4269.14
491.95	4395.53
492.13	4454.04
492.30	4603.83
492.48	4692.77
492.66	4947.89
492.84	4784.06
493.01	4894.06
493.19	4873.00
493.37	4755.97
493.54	4746.61
493.72	4709.16
493.90	4863.63
494.08	5041.51
494.25	5179.61
494.43	5149.18
494.61	5350.46
494.79	5210.03
494.96	5233.44
495.14	5210.03
495.32	4865.97
495.49	4844.91
495.67	4987.68
495.85	5146.84
496.02	5184.29
496.20	5291.95
496.38	5268.55
496.55	5177.26
496.73	5432.38
496.91	5355.15
497.09	5228.76
497.26	5462.81
497.44	5359.83
497.62	5310.68
497.79	5135.14
497.97	5018.11
498.14	4931.51
498.32	5121.09
498.50	5242.80
498.67	5378.55
498.85	5320.04
499.03	5385.57
499.20	5437.06
499.38	5256.84
499.56	5305.99
499.73	5167.90
499.91	5181.95
500.08	5160.88
500.26	5036.83
500.44	5132.79
500.61	5125.77
500.79	5226.42
500.97	5181.95
501.14	5060.24
501.32	5076.62
501.49	4924.49
501.67	4985.34
501.84	5139.82
502.02	5214.71
502.20	5188.97
502.37	5245.14
502.55	5111.73
502.72	5294.29
502.90	5584.52
503.07	5109.39
503.25	5128.11
503.43	4975.98
503.60	4889.38
503.78	4746.61
503.95	4601.49
504.13	5076.62
504.30	5233.44
504.48	5294.29
504.65	5350.46
504.83	5430.04
505.01	5561.11
505.18	5479.19
505.36	5511.96
505.53	5502.60
505.71	5621.97
505.88	5736.65
506.06	5692.18
506.23	5547.07
506.41	5165.56
506.58	5324.72
506.76	5420.68
506.93	5355.15
507.11	5331.74
507.28	5324.72
507.46	5205.35
507.63	5177.26
507.81	5186.63
507.98	5057.90
508.16	5193.65
508.33	5476.85
508.50	5465.15
508.68	5586.86
508.85	5790.49
509.03	5841.98
509.20	5650.05
509.38	5465.15
509.55	5394.93
509.73	5366.85
509.90	5554.09
510.08	5507.28
510.25	5514.30
510.42	5533.03
510.60	5682.82
510.77	5586.86
510.95	5856.02
511.12	5647.71
511.30	5858.36
511.47	5839.64
511.64	5977.73
511.82	5806.87
511.99	5584.52
512.17	5652.39
512.34	5439.40
512.51	5394.93
512.69	5338.76
512.86	5685.16
513.04	5636.01
513.21	5628.99
513.38	5617.29
513.56	5472.17
513.73	5399.62
513.90	5497.92
514.08	5467.49
514.25	5554.09
514.43	5636.01
514.60	5657.07
514.77	5652.39
514.95	5472.17
515.12	5582.18
515.29	5631.33
515.47	5671.12
515.64	5717.93
515.81	5729.63
515.99	5734.31
516.16	5467.49
516.33	4922.15
516.51	4585.11
516.68	4702.14
516.85	4692.77
517.03	4725.54
517.20	5025.13
517.37	5441.75
517.54	5631.33
517.72	5472.17
517.89	5261.52
518.06	4758.31
518.24	4865.97
518.41	5046.20
518.58	5448.77
518.75	5280.25
518.93	5533.03
519.10	5446.43
519.27	5490.90
519.45	5537.71
519.62	5827.93
519.79	5764.74
519.96	5568.13
520.14	5717.93
520.31	5570.48
520.48	5544.73
520.65	5404.30
520.83	5692.18
521.00	5760.06
521.17	5853.68
521.34	5746.02
521.52	5769.42
521.69	5830.27
521.86	5905.17
522.03	5837.30
522.20	5851.34
522.38	5575.16
522.55	5441.75
522.72	5518.98
522.89	5598.56
523.07	5645.37
523.24	5804.53
523.41	5844.32
523.58	5860.70
523.75	5989.43
523.92	5816.23
524.10	5991.77
524.27	5895.81
524.44	5959.00
524.61	6043.26
524.78	5811.55
524.96	5837.30
525.13	5886.45
525.30	5933.26
525.47	6104.12
525.64	6061.99
525.81	5935.60
525.98	5706.23
526.16	5163.22
526.33	5109.39
526.50	5111.73
526.67	5032.15
526.84	5055.56
527.01	5289.61
527.18	5476.85
527.36	5514.30
527.53	5678.14
527.70	5877.09
527.87	5715.59
528.04	5647.71
528.21	5706.23
528.38	5792.83
528.55	6122.84
528.72	6134.54
528.89	6076.03
529.07	6052.63
529.24	5996.45
529.41	5900.49
529.58	5685.16
529.75	5769.42
529.92	5701.54
530.09	5846.66
530.26	6076.03
530.43	6005.81
530.60	6097.10
530.77	6108.80
530.94	6225.82
531.11	6001.13
531.28	5818.57
531.46	5902.83
531.63	5928.58
531.80	5942.62
531.97	5757.72
532.14	5720.27
532.31	5619.63
532.48	5570.48
532.65	5504.94
532.82	5476.85
532.99	5668.78
533.16	5830.27
533.33	6024.54
533.50	5860.70
533.67	5951.98
533.84	5783.46
534.01	5727.29
534.18	5647.71
534.35	5881.77
534.52	5797.51
534.69	5851.34
534.86	6012.84
535.03	5963.68
535.20	5996.45
535.37	6169.65
535.54	6111.14
535.71	6026.88
535.88	6090.07
536.05	5937.94
536.22	5804.53
536.38	5727.29
536.55	5551.75
536.72	5518.98
536.89	5474.51
537.06	5636.01
537.23	5863.04
537.40	5905.17
537.57	5818.57
537.74	5994.11
537.91	6108.80
538.08	5849.00
538.25	5844.32
538.42	5771.76
538.59	5921.56
538.75	5907.51
538.92	5645.37
539.09	5970.71
539.26	5682.82
539.43	5708.57
539.60	5549.41
539.77	5575.16
539.94	5750.70
540.11	5708.57
540.28	5582.18
540.44	5467.49
540.61	5591.54
540.78	5563.45
540.95	5664.10
541.12	5811.55
541.29	5802.19
541.46	6005.81
541.62	6272.64
541.79	5996.45
541.96	5895.81
542.13	5856.02
542.30	5841.98
542.47	6054.97
542.63	5940.28
542.80	5977.73
542.97	5846.66
543.14	5643.03
543.31	5696.86
543.48	5921.56
543.64	6104.12
543.81	6399.02
543.98	6204.76
544.15	5984.75
544.32	5872.40
544.48	5863.04
544.65	6017.52
544.82	6085.39
544.99	6092.41
545.16	6059.65
545.32	5926.24
545.49	6169.65
545.66	6722.02
545.83	6857.77
546.00	6590.95
546.16	6171.99
546.33	5909.85
546.50	5888.79
546.67	5989.43
546.83	5893.47
547.00	5980.07
547.17	5767.08
547.34	5584.52
547.50	5694.52
547.67	5724.95
547.84	5722.61
548.00	5652.39
548.17	5872.40
548.34	5856.02
548.51	5834.96
548.67	5947.30
548.84	5860.70
549.01	5846.66
549.18	5790.49
549.34	5827.93
549.51	5652.39
549.68	5678.14
549.84	5738.99
550.01	5727.29
550.18	5851.34
550.34	5727.29
550.51	5628.99
550.68	5767.08
550.84	5549.41
551.01	5657.07
551.18	5577.50
551.34	5533.03
551.51	5785.80
551.68	5617.29
551.84	5816.23
552.01	5790.49
552.18	5710.91
552.34	5643.03
552.51	5413.66
552.68	5554.09
552.84	5596.22
553.01	5657.07
553.18	5446.43
553.34	5703.89
553.51	5685.16
553.67	5724.95
553.84	5813.89
554.01	5729.63
554.17	5528.35
554.34	5554.09
554.51	5540.05
554.67	5713.25
554.84	5785.80
555.00	5678.14
555.17	5731.97
555.33	5727.29
555.50	5500.26
555.67	5474.51
555.83	5734.31
556.00	5462.81
556.16	5671.12
556.33	5404.30
556.50	5411.32
556.66	5341.10
556.83	5315.36
556.99	5303.65
557.16	5334.08
557.32	5430.04
557.49	5362.17
557.65	5406.64
557.82	5385.57
557.98	5364.51
558.15	5228.76
558.32	5301.31
558.48	5039.17
558.65	5100.03
558.81	5210.03
558.98	5074.28
559.14	5355.15
559.31	5212.37
559.47	5284.93
559.64	5193.65
559.80	5195.99
559.97	5224.08
560.13	5235.78
560.30	5315.36
560.46	5556.43
560.63	5427.70
560.79	5561.11
560.96	5551.75
561.12	5313.02
561.29	5128.11
561.45	4983.00
561.61	5371.53
561.78	5369.19
561.94	5355.15
562.11	5198.33
562.27	5188.97
562.44	5242.80
562.60	5275.57
562.77	5383.23
562.93	5298.97
563.10	5334.08
563.26	5214.71
563.42	5144.50
563.59	5158.54
563.75	5233.44
563.92	5165.56
564.08	5207.69
564.24	5205.35
564.41	5118.75
564.57	5184.29
564.74	5207.69
564.90	5151.52
565.07	5238.12
565.23	5268.55
565.39	5064.92
565.56	4957.25
565.72	4884.70
565.88	4947.89
566.05	4912.78
566.21	5025.13
566.38	5020.45
566.54	4922.15
566.70	5156.20
566.87	5217.05
567.03	5167.90
567.19	5219.39
567.36	5011.09
567.52	5074.28
567.68	4987.68
567.85	5039.17
568.01	4788.74
568.17	4873.00
568.34	4685.75
568.50	4629.58
568.66	4620.22
568.83	4746.61
568.99	4648.30
569.15	4762.99
569.32	4755.97
569.48	4812.14
569.64	4774.69
569.81	4662.35
569.97	4828.53
570.13	4882.36
570.30	4578.09
570.46	4655.33
570.62	4578.09
570.78	4489.15
570.95	4627.24
571.11	4767.67
571.27	4695.11
571.43	4760.65
571.60	4678.73
571.76	4793.42
571.92	4767.67
572.09	4819.16
572.25	4798.10
572.41	4826.18
572.57	4793.42
572.74	4725.54
572.90	4697.46
573.06	4723.20
573.22	4779.37
573.38	4727.88
573.55	4840.23
573.71	4695.11
573.87	4851.93
574.03	4634.26
574.20	4615.54
574.36	4568.73
574.52	4643.62
574.68	4622.56
574.84	4580.43
575.01	4610.86
575.17	4447.02
575.33	4470.42
575.49	4430.63
575.65	4557.02
575.82	4650.64
575.98	4533.62
576.14	4601.49
576.30	4667.03
576.46	4636.60
576.62	4685.75
576.79	4828.53
576.95	4709.16
577.11	4491.49
577.27	4606.17
577.43	4695.11
577.59	4725.54
577.75	4552.34
577.92	4496.17
578.08	4416.59
578.24	4353.40
578.40	4512.55
578.56	4615.54
578.72	4650.64
578.88	4830.87
579.04	4645.96
579.21	4615.54
579.37	4629.58
579.53	4744.27
579.69	4681.07
579.85	4723.20
580.01	4667.03
580.17	4760.65
580.33	4585.11
580.49	4573.41
580.65	4573.41
580.82	4475.10
580.98	4620.22
581.14	4550.00
581.30	4606.17
581.46	4456.38
581.62	4730.22
581.78	4730.22
581.94	4746.61
582.10	4685.75
582.26	4753.63
582.42	4615.54
582.58	4809.80
582.74	4748.95
582.90	4807.46
583.06	4648.30
583.22	4683.41
583.38	4699.80
583.54	4603.83
583.70	4741.93
583.86	4788.74
584.02	4770.01
584.18	4716.18
584.34	4610.86
584.50	4755.97
584.66	4531.28
584.82	4585.11
584.98	4465.74
585.14	4535.96
585.30	4379.14
585.46	4421.27
585.62	4344.03
585.78	4372.12
585.94	4437.66
586.10	4437.66
586.26	4390.84
586.42	4517.23
586.58	4456.38
586.74	4535.96
586.90	4397.87
587.06	4432.97
587.22	4442.34
587.38	4280.84
587.54	4292.54
587.70	4095.94
587.86	4053.81
588.02	3967.21
588.18	3861.88
588.34	3658.26
588.49	3417.18
588.65	3171.43
588.81	3122.27
588.97	3232.28
589.13	3323.56
589.29	3199.51
589.45	3342.28
589.61	3290.79
589.77	3459.31
589.93	3630.17
590.08	3644.21
590.24	3824.44
590.40	3712.09
590.56	3676.98
590.72	3744.86
590.88	3681.66
591.04	3831.46
591.20	3730.81
591.35	3765.92
591.51	3620.81
591.67	3662.94
591.83	3686.34
591.99	3595.06
592.15	3630.17
592.31	3847.84
592.46	3889.97
592.62	3936.78
592.78	3985.93
592.94	3927.42
593.10	3908.69
593.26	3974.23
593.41	4035.08
593.57	3896.99
593.73	3880.61
593.89	3653.58
594.05	3468.67
594.20	3405.48
594.36	3419.52
594.52	3508.46
594.68	3398.46
594.84	3363.35
594.99	3754.22
595.15	3747.20
595.31	3812.73
595.47	3742.52
595.62	3899.33
595.78	3735.50
595.94	3927.42
596.10	3948.48
596.25	3763.58
596.41	3754.22
596.57	3499.10
596.73	3936.78
596.88	3892.31
597.04	3822.09
597.20	3871.25
597.36	3768.26
597.51	3726.13
597.67	3758.90
597.83	3885.29
