SpectraSuite Data File
++++++++++++++++++++++++++++++++++++
Date: Fri Oct 04 11:44:19 GMT-05:00 2013
User: price-jones
Dark Spectrum Present: No
Reference Spectrum Present: No
Number of Sampled Component Spectra: 1
Spectrometers: USB2+H05261
Integration Time (usec): 100000 (USB2+H05261)
Spectra Averaged: 1 (USB2+H05261)
Boxcar Smoothing: 0 (USB2+H05261)
Correct for Electrical Dark: No (USB2+H05261)
Strobe/Lamp Enabled: No (USB2+H05261)
Correct for Detector Non-linearity: No (USB2+H05261)
Correct for Stray Light: No (USB2+H05261)
Number of Pixels in Processed Spectrum: 2048
>>>>>Begin Processed Spectral Data<<<<<
365.73	11.70
365.92	11.70
366.12	11.70
366.32	0.00
366.52	0.00
366.72	4.68
366.91	0.00
367.11	14.04
367.31	0.00
367.51	0.00
367.70	0.00
367.90	0.00
368.10	0.00
368.30	0.00
368.49	0.00
368.69	0.00
368.89	0.00
369.09	0.00
369.28	0.00
369.48	0.00
369.68	0.00
369.87	0.00
370.07	0.00
370.27	23.41
370.47	154.48
370.66	346.40
370.86	374.49
371.06	423.64
371.25	430.66
371.45	362.78
371.65	346.40
371.84	322.99
372.04	315.97
372.24	407.25
372.44	416.62
372.63	376.83
372.83	381.51
373.03	407.25
373.22	395.55
373.42	351.08
373.62	440.02
373.81	479.81
374.01	463.43
374.21	379.17
374.40	360.44
374.60	440.02
374.79	407.25
374.99	491.51
375.19	463.43
375.38	458.74
375.58	458.74
375.78	498.53
375.97	535.98
376.17	540.66
376.37	454.06
376.56	533.64
376.76	524.28
376.95	571.09
377.15	627.26
377.35	589.82
377.54	620.24
377.74	596.84
377.93	678.76
378.13	599.18
378.33	596.84
378.52	559.39
378.72	566.41
378.91	589.82
379.11	538.32
379.31	496.19
379.50	557.05
379.70	608.54
379.89	629.60
380.09	589.82
380.28	669.39
380.48	692.80
380.68	617.90
380.87	669.39
381.07	573.43
381.26	510.24
381.46	512.58
381.65	552.37
381.85	475.13
382.04	484.49
382.24	468.11
382.43	383.85
382.63	454.06
382.83	463.43
383.02	512.58
383.22	395.55
383.41	395.55
383.61	433.00
383.80	472.79
384.00	503.22
384.19	617.90
384.39	589.82
384.58	601.52
384.78	606.20
384.97	545.34
385.17	564.07
385.36	540.66
385.56	571.09
385.75	543.00
385.95	648.33
386.14	636.63
386.34	608.54
386.53	627.26
386.72	578.11
386.92	547.69
387.11	589.82
387.31	676.41
387.50	636.63
387.70	589.82
387.89	624.92
388.09	699.82
388.28	622.58
388.48	557.05
388.67	585.13
388.86	650.67
389.06	695.14
389.25	812.17
389.45	765.36
389.64	681.10
389.84	692.80
390.03	706.84
390.22	830.89
390.42	772.38
390.61	791.10
390.81	870.68
391.00	933.87
391.19	840.25
391.39	830.89
391.58	802.80
391.78	781.74
391.97	711.52
392.16	645.99
392.36	667.05
392.55	589.82
392.75	442.36
392.94	376.83
393.13	454.06
393.33	477.47
393.52	503.22
393.71	587.47
393.91	575.77
394.10	660.03
394.29	814.51
394.49	835.57
394.68	854.30
394.88	940.90
395.07	882.38
395.26	875.36
395.46	896.43
395.65	950.26
395.84	863.66
396.04	727.91
396.23	631.94
396.42	500.87
396.62	484.49
396.81	543.00
397.00	676.41
397.19	727.91
397.39	938.55
397.58	1053.24
397.77	1076.65
397.97	1090.69
398.16	1100.05
398.35	1104.73
398.55	1174.95
398.74	1128.14
398.93	1240.48
399.12	1144.52
399.32	1139.84
399.51	1231.12
399.70	1226.44
399.90	1139.84
400.09	1308.36
400.28	1221.76
400.47	1306.02
400.67	1313.04
400.86	1324.74
401.05	1350.49
401.24	1432.41
401.44	1425.39
401.63	1387.94
401.82	1448.79
402.01	1434.75
402.21	1359.85
402.40	1296.66
402.59	1266.23
402.78	1235.80
402.97	1210.06
403.17	1366.87
403.36	1427.73
403.55	1383.26
403.74	1423.05
403.93	1310.70
404.13	1362.19
404.32	1334.11
404.51	1341.13
404.70	1392.62
404.89	1383.26
405.09	1348.15
405.28	1338.79
405.47	1355.17
405.66	1301.34
405.85	1313.04
406.05	1261.55
406.24	1256.87
406.43	1291.98
406.62	1387.94
406.81	1446.45
407.00	1423.05
407.20	1331.76
407.39	1348.15
407.58	1423.05
407.77	1446.45
407.96	1504.96
408.15	1547.09
408.34	1521.35
408.54	1523.69
408.73	1558.80
408.92	1558.80
409.11	1427.73
409.30	1465.18
409.49	1380.92
409.68	1345.81
409.87	1301.34
410.07	1299.00
410.26	1392.62
410.45	1413.68
410.64	1437.09
410.83	1619.65
411.02	1519.01
411.21	1582.20
411.40	1640.72
411.59	1589.22
411.78	1568.16
411.98	1621.99
412.17	1533.05
412.36	1596.25
412.55	1577.52
412.74	1458.15
412.93	1490.92
413.12	1575.18
413.31	1661.78
413.50	1680.50
413.69	1788.17
413.88	1577.52
414.07	1544.75
414.26	1668.80
414.45	1645.40
414.64	1760.08
414.83	1610.29
415.02	1734.34
415.22	1675.82
415.41	1727.32
415.60	1717.95
415.79	1905.20
415.98	1865.41
416.17	1886.47
416.36	1795.19
416.55	1813.92
416.74	1724.97
416.93	1687.53
417.12	1685.19
417.31	1671.14
417.50	1746.04
417.69	1788.17
417.88	1645.40
418.07	1781.15
418.26	1729.66
418.45	1820.94
418.64	1764.76
418.83	1799.87
419.02	1860.73
419.21	1774.13
419.39	1736.68
419.58	1797.53
419.77	1603.27
419.96	1776.47
420.15	1914.56
420.34	1837.32
420.53	1989.46
420.72	2019.88
420.91	1916.90
421.10	1813.92
421.29	1940.30
421.48	1783.49
421.67	1902.86
421.86	1830.30
422.05	1722.63
422.24	1586.88
422.43	1563.48
422.61	1743.70
422.80	1816.26
422.99	1832.64
423.18	1767.10
423.37	1823.28
423.56	1806.89
423.75	1898.17
423.94	1870.09
424.13	1657.10
424.32	1764.76
424.50	1781.15
424.69	1732.00
424.88	1827.96
425.07	1757.74
425.26	1717.95
425.45	1746.04
425.64	1636.03
425.83	1706.25
426.01	1842.00
426.20	1884.13
426.39	1820.94
426.58	1582.20
426.77	1556.46
426.96	1530.71
427.15	1633.69
427.33	1701.57
427.52	1659.44
427.71	1842.00
427.90	1692.21
428.09	1687.53
428.28	1621.99
428.46	1703.91
428.65	1633.69
428.84	1666.46
429.03	1694.55
429.22	1603.27
429.40	1537.73
429.59	1392.62
429.78	1221.76
429.97	1277.93
430.16	1352.83
430.34	1289.64
430.53	1268.57
430.72	1369.21
430.91	1479.22
431.10	1572.84
431.28	1788.17
431.47	1977.75
431.66	2024.56
431.85	1949.67
432.03	1701.57
432.22	1750.72
432.41	1760.08
432.60	1944.99
432.79	1977.75
432.97	2069.03
433.16	1989.46
433.35	1851.36
433.54	1720.29
433.72	1753.06
433.91	1771.79
434.10	1757.74
434.28	1916.90
434.47	1975.41
434.66	1996.48
434.85	1891.15
435.03	2029.24
435.22	2267.98
435.41	2469.27
435.59	2441.18
435.78	2340.54
435.97	2298.41
436.16	2174.36
436.34	2064.35
436.53	2097.12
436.72	2127.55
436.90	2029.24
437.09	2062.01
437.28	1940.30
437.46	2005.84
437.65	1909.88
437.84	1933.28
438.02	1736.68
438.21	1732.00
438.40	1769.44
438.58	1813.92
438.77	1905.20
438.96	2085.42
439.14	2057.33
439.33	2141.59
439.52	2214.15
439.70	2125.21
439.89	2118.18
440.08	2057.33
440.26	2003.50
440.45	2132.23
440.63	2118.18
440.82	2260.96
441.01	2310.11
441.19	2328.83
441.38	2310.11
441.57	2363.94
441.75	2270.32
441.94	2406.07
442.12	2275.00
442.31	2478.63
442.50	2466.92
442.68	2396.71
442.87	2314.79
443.05	2293.72
443.24	2345.22
443.43	2422.45
443.61	2401.39
443.80	2551.18
443.98	2490.33
444.17	2363.94
444.35	2480.97
444.54	2490.33
444.73	2473.95
444.91	2377.98
445.10	2300.75
445.28	2214.15
445.47	2150.95
445.65	2143.93
445.84	2310.11
446.02	2340.54
446.21	2333.51
446.39	2385.01
446.58	2352.24
446.77	2347.56
446.95	2427.14
447.14	2644.81
447.32	2633.10
447.51	2445.86
447.69	2401.39
447.88	2349.90
448.06	2452.88
448.25	2464.58
448.43	2502.03
448.62	2284.36
448.80	2406.07
448.99	2417.77
449.17	2389.69
449.36	2417.77
449.54	2595.65
449.73	2548.84
449.91	2670.55
450.10	2623.74
450.28	2736.09
450.46	2731.41
450.65	2684.59
450.83	2560.55
451.02	2693.96
451.20	2616.72
451.39	2537.14
451.57	2560.55
451.76	2658.85
451.94	2532.46
452.13	2537.14
452.31	2394.37
452.49	2366.28
452.68	2120.53
452.86	2335.85
453.05	2417.77
453.23	2513.74
453.42	2525.44
453.60	2483.31
453.78	2464.58
453.97	2541.82
454.15	2513.74
454.34	2532.46
454.52	2546.50
454.70	2506.71
454.89	2513.74
455.07	2562.89
455.26	2558.21
455.44	2548.84
455.62	2733.75
455.81	2612.04
455.99	2654.17
456.17	2628.42
456.36	2590.97
456.54	2607.36
456.73	2665.87
456.91	2649.49
457.09	2712.68
457.28	2759.49
457.46	2708.00
457.64	2649.49
457.83	2630.76
458.01	2406.07
458.19	2546.50
458.38	2626.08
458.56	2661.19
458.74	2612.04
458.93	2668.21
459.11	2595.65
459.29	2715.02
459.48	2602.68
459.66	2689.28
459.84	2675.23
460.03	2696.30
460.21	2642.46
460.39	2663.53
460.57	2752.47
460.76	2761.83
460.94	2778.22
461.12	2658.85
461.31	2796.94
461.49	2644.81
461.67	2757.15
461.85	2878.86
462.04	2768.85
462.22	3260.37
462.40	2899.92
462.59	2825.03
462.77	2818.00
462.95	2623.74
463.13	2754.81
463.32	2693.96
463.50	2745.45
463.68	2761.83
463.86	2745.45
464.05	2722.04
464.23	2637.78
464.41	2560.55
464.59	2602.68
464.78	2740.77
464.96	2677.57
465.14	2612.04
465.32	2614.38
465.50	2766.51
465.69	2850.77
465.87	2759.49
466.05	2738.43
466.23	2541.82
466.41	2492.67
466.60	2654.17
466.78	2548.84
466.96	2684.59
467.14	2668.21
467.32	2801.62
467.51	2855.45
467.69	2502.03
467.87	2670.55
468.05	2663.53
468.23	2696.30
468.41	2869.50
468.60	2640.12
468.78	2654.17
468.96	2651.83
469.14	2759.49
469.32	2750.13
469.50	2586.29
469.69	2619.06
469.87	2644.81
470.05	2747.79
470.23	2548.84
470.41	2623.74
470.59	2597.99
470.77	2705.66
470.95	2656.51
471.14	2715.02
471.32	2731.41
471.50	2792.26
471.68	2834.39
471.86	2939.71
472.04	2895.24
472.22	2878.86
472.40	2846.09
472.58	2668.21
472.77	2792.26
472.95	2808.64
473.13	2913.97
473.31	2806.30
473.49	2881.20
473.67	2815.66
473.85	2815.66
474.03	2876.52
474.21	2967.80
474.39	3040.36
474.57	2988.86
474.75	2963.12
474.93	2949.08
475.12	2984.18
475.30	2869.50
475.48	2988.86
475.66	2881.20
475.84	2967.80
476.02	2832.05
476.20	2888.22
476.38	2925.67
476.56	3110.57
476.74	3098.87
476.92	2878.86
477.10	3105.89
477.28	3276.75
477.46	3208.87
477.64	3281.43
477.82	3122.27
478.00	3204.19
478.18	3145.68
478.36	3075.46
478.54	3077.80
478.72	3288.45
478.90	3225.26
479.08	3379.73
479.26	3449.95
479.44	3332.92
479.62	3276.75
479.80	3311.86
479.98	3309.52
480.16	3426.54
480.34	3375.05
480.52	3426.54
480.70	3356.33
480.88	3407.82
481.06	3473.36
481.24	3658.26
481.41	3393.78
481.59	3712.09
481.77	3616.13
481.95	3510.80
482.13	3634.85
482.31	3496.76
482.49	3669.96
482.67	3679.32
482.85	3712.09
483.03	3740.18
483.21	3747.20
483.39	3803.37
483.57	3581.02
483.74	3644.21
483.92	3646.55
484.10	3634.85
484.28	3770.60
484.46	3728.47
484.64	3875.93
484.82	3653.58
485.00	3726.13
485.18	3730.81
485.35	3485.06
485.53	3260.37
485.71	3178.45
485.89	2911.63
486.07	3164.40
486.25	3412.50
486.43	3506.12
486.61	3510.80
486.78	3644.21
486.96	3606.77
487.14	3742.52
487.32	3866.56
487.50	3990.61
487.68	4030.40
487.85	4074.87
488.03	4084.23
488.21	4154.45
488.39	4152.11
488.57	4009.34
488.75	3847.84
488.92	4194.24
489.10	4177.86
489.28	4262.12
489.46	4514.89
489.64	4507.87
489.81	4582.77
489.99	4594.47
490.17	4585.11
490.35	4535.96
490.53	4589.79
490.70	4461.06
490.88	4435.32
491.06	4442.34
491.24	4362.76
491.41	4550.00
491.59	4173.18
491.77	4088.92
491.95	4187.22
492.13	4245.73
492.30	4540.64
492.48	4706.82
492.66	4758.31
492.84	4746.61
493.01	4674.05
493.19	4622.56
493.37	4547.66
493.54	4667.03
493.72	4535.96
493.90	4692.77
494.08	4903.42
494.25	4929.17
494.43	4814.48
494.61	4889.38
494.79	5064.92
494.96	5041.51
495.14	4868.31
495.32	4819.16
495.49	4718.52
495.67	4727.88
495.85	4983.00
496.02	4840.23
496.20	5137.48
496.38	5039.17
496.55	4905.76
496.73	4919.81
496.91	5004.07
497.09	5195.99
497.26	5191.31
497.44	5055.56
497.62	5146.84
497.79	4826.18
497.97	4681.07
498.14	4645.96
498.32	5015.77
498.50	5064.92
498.67	5036.83
498.85	5320.04
499.03	5221.74
499.20	5228.76
499.38	5256.84
499.56	5032.15
499.73	5062.58
499.91	4929.17
500.08	4908.10
500.26	4765.33
500.44	4781.71
500.61	4936.19
500.79	5020.45
500.97	4943.21
501.14	4814.48
501.32	4868.31
501.49	4660.01
501.67	4922.15
501.84	4908.10
502.02	5149.18
502.20	5069.60
502.37	5198.33
502.55	5018.11
502.72	5132.79
502.90	5144.50
503.07	5041.51
503.25	4912.78
503.43	4720.86
503.60	4762.99
503.78	4592.13
503.95	4475.10
504.13	4887.04
504.30	5055.56
504.48	5046.20
504.65	5123.43
504.83	5020.45
505.01	5280.25
505.18	5198.33
505.36	5186.63
505.53	5481.53
505.71	5329.40
505.88	5397.28
506.06	5228.76
506.23	5170.24
506.41	5041.51
506.58	5018.11
506.76	5205.35
506.93	5085.98
507.11	5100.03
507.28	5078.96
507.46	5130.45
507.63	4992.36
507.81	4826.18
507.98	4947.89
508.16	5217.05
508.33	5151.52
508.50	5256.84
508.68	5327.06
508.85	5486.22
509.03	5455.79
509.20	5533.03
509.38	5224.08
509.55	5331.74
509.73	5259.18
509.90	5336.42
510.08	5416.00
510.25	5294.29
510.42	5359.83
510.60	5432.38
510.77	5362.17
510.95	5355.15
511.12	5458.13
511.30	5638.35
511.47	5699.20
511.64	5600.90
511.82	5596.22
511.99	5341.10
512.17	5308.34
512.34	5259.18
512.51	5210.03
512.69	5371.53
512.86	5514.30
513.04	5406.64
513.21	5467.49
513.38	5245.14
513.56	5266.21
513.73	5341.10
513.90	5231.10
514.08	4990.02
514.25	5301.31
514.43	5371.53
514.60	5364.51
514.77	5493.24
514.95	5362.17
515.12	5420.68
515.29	5460.47
515.47	5378.55
515.64	5495.58
515.81	5385.57
515.99	5542.39
516.16	5172.58
516.33	4681.07
516.51	4423.61
516.68	4344.03
516.85	4304.25
517.03	4435.32
517.20	4716.18
517.37	5184.29
517.54	5378.55
517.72	5380.89
517.89	4952.57
518.06	4552.34
518.24	4655.33
518.41	4961.94
518.58	5107.05
518.75	5078.96
518.93	5242.80
519.10	5254.50
519.27	5200.67
519.45	5221.74
519.62	5458.13
519.79	5483.88
519.96	5378.55
520.14	5427.70
520.31	5352.81
520.48	5041.51
520.65	5343.44
520.83	5448.77
521.00	5561.11
521.17	5509.62
521.34	5425.36
521.52	5540.05
521.69	5689.84
521.86	5668.78
522.03	5795.17
522.20	5453.45
522.38	5200.67
522.55	5107.05
522.72	5301.31
522.89	5275.57
523.07	5460.47
523.24	5483.88
523.41	5584.52
523.58	5455.79
523.75	5575.16
523.92	5713.25
524.10	5675.80
524.27	5696.86
524.44	5575.16
524.61	5703.89
524.78	5610.26
524.96	5582.18
525.13	5619.63
525.30	5671.12
525.47	5638.35
525.64	5881.77
525.81	5621.97
525.98	5109.39
526.16	5156.20
526.33	4880.02
526.50	4858.95
526.67	4725.54
526.84	4917.47
527.01	5210.03
527.18	5242.80
527.36	5364.51
527.53	5518.98
527.70	5612.60
527.87	5577.50
528.04	5469.83
528.21	5514.30
528.38	5547.07
528.55	5755.38
528.72	5795.17
528.89	5856.02
529.07	5879.43
529.24	5741.33
529.41	5633.67
529.58	5369.19
529.75	5458.13
529.92	5509.62
530.09	5610.26
530.26	5724.95
530.43	5619.63
530.60	5935.60
530.77	5743.67
530.94	5701.54
531.11	5912.19
531.28	5659.42
531.46	5661.76
531.63	5605.58
531.80	5806.87
531.97	5479.19
532.14	5373.87
532.31	5303.65
532.48	5195.99
532.65	5240.46
532.82	5233.44
532.99	5345.78
533.16	5376.21
533.33	5753.04
533.50	5533.03
533.67	5493.24
533.84	5570.48
534.01	5486.22
534.18	5467.49
534.35	5500.26
534.52	5460.47
534.69	5626.65
534.86	5568.13
535.03	5713.25
535.20	5703.89
535.37	5966.03
535.54	5973.05
535.71	5816.23
535.88	5853.68
536.05	5729.63
536.22	5540.05
536.38	5528.35
536.55	5263.86
536.72	5401.96
536.89	5263.86
537.06	5383.23
537.23	5703.89
537.40	5558.77
537.57	5621.97
537.74	5561.11
537.91	5762.40
538.08	5680.48
538.25	5666.44
538.42	5715.59
538.59	5731.97
538.75	5659.42
538.92	5476.85
539.09	5671.12
539.26	5509.62
539.43	5425.36
539.60	5231.10
539.77	5526.00
539.94	5315.36
540.11	5362.17
540.28	5200.67
540.44	5444.09
540.61	5413.66
540.78	5427.70
540.95	5549.41
541.12	5715.59
541.29	5830.27
541.46	5792.83
541.62	5781.12
541.79	5771.76
541.96	5579.84
542.13	5907.51
542.30	5753.04
542.47	5731.97
542.63	5701.54
542.80	5633.67
542.97	5682.82
543.14	5748.36
543.31	5659.42
543.48	5640.69
543.64	5846.66
543.81	5923.90
543.98	6057.31
544.15	5757.72
544.32	5584.52
544.48	5776.44
544.65	5685.16
544.82	5795.17
544.99	5881.77
545.16	5769.42
545.32	5591.54
545.49	6169.65
545.66	6691.59
545.83	6759.47
546.00	6361.58
546.16	6085.39
546.33	5926.24
546.50	5619.63
546.67	5680.48
546.83	5584.52
547.00	5586.86
547.17	5570.48
547.34	5486.22
547.50	5462.81
547.67	5486.22
547.84	5500.26
548.00	5479.19
548.17	5593.88
548.34	5579.84
548.51	5738.99
548.67	5584.52
548.84	5575.16
549.01	5589.20
549.18	5589.20
549.34	5486.22
549.51	5556.43
549.68	5523.66
549.84	5357.49
550.01	5495.58
550.18	5441.75
550.34	5483.88
550.51	5493.24
550.68	5537.71
550.84	5364.51
551.01	5521.32
551.18	5366.85
551.34	5458.13
551.51	5462.81
551.68	5439.40
551.84	5621.97
552.01	5467.49
552.18	5558.77
552.34	5327.06
552.51	5179.61
552.68	5207.69
552.84	5179.61
553.01	5380.89
553.18	5303.65
553.34	5313.02
553.51	5462.81
553.67	5462.81
553.84	5572.82
554.01	5549.41
554.17	5338.76
554.34	5397.28
554.51	5423.02
554.67	5423.02
554.84	5430.04
555.00	5301.31
555.17	5359.83
555.33	5350.46
555.50	5210.03
555.67	5144.50
555.83	5266.21
556.00	5172.58
556.16	5301.31
556.33	5210.03
556.50	5167.90
556.66	5191.31
556.83	5048.54
556.99	5013.43
557.16	4924.49
557.32	5093.01
557.49	5149.18
557.65	5252.16
557.82	5210.03
557.98	5179.61
558.15	5060.24
558.32	5041.51
558.48	4802.78
558.65	4889.38
558.81	4917.47
558.98	4987.68
559.14	4966.62
559.31	4894.06
559.47	5001.72
559.64	4980.66
559.80	5011.09
559.97	4950.23
560.13	5060.24
560.30	5060.24
560.46	5067.26
560.63	5109.39
560.79	5081.30
560.96	5224.08
561.12	5006.41
561.29	4973.64
561.45	4835.55
561.61	4959.60
561.78	5008.75
561.94	5149.18
562.11	5029.81
562.27	5008.75
562.44	4990.02
562.60	4992.36
562.77	5203.01
562.93	5074.28
563.10	5125.77
563.26	4922.15
563.42	5011.09
563.59	4971.30
563.75	4823.84
563.92	4950.23
564.08	4851.93
564.24	4957.25
564.41	5095.35
564.57	4922.15
564.74	4856.61
564.90	4994.70
565.07	4812.14
565.23	4910.44
565.39	4774.69
565.56	4777.03
565.72	4582.77
565.88	4706.82
566.05	4683.41
566.21	4674.05
566.38	4737.24
566.54	4779.37
566.70	4765.33
566.87	4856.61
567.03	4772.35
567.19	4823.84
567.36	4964.28
567.52	4812.14
567.68	4917.47
567.85	4589.79
568.01	4423.61
568.17	4531.28
568.34	4353.40
568.50	4390.84
568.66	4519.57
568.83	4550.00
568.99	4587.45
569.15	4601.49
569.32	4557.02
569.48	4573.41
569.64	4514.89
569.81	4442.34
569.97	4699.80
570.13	4573.41
570.30	4688.09
570.46	4428.29
570.62	4311.27
570.78	4332.33
570.95	4072.53
571.11	4339.35
571.27	4486.81
571.43	4461.06
571.60	4395.53
571.76	4409.57
571.92	4732.56
572.09	4723.20
572.25	4475.10
572.41	4561.70
572.57	4521.92
572.74	4489.15
572.90	4484.47
573.06	4589.79
573.22	4573.41
573.38	4503.19
573.55	4561.70
573.71	4613.20
573.87	4638.94
574.03	4339.35
574.20	4423.61
574.36	4346.37
574.52	4400.21
574.68	4402.55
574.84	4437.66
575.01	4369.78
575.17	4404.89
575.33	4409.57
575.49	4482.13
575.65	4440.00
575.82	4280.84
575.98	4369.78
576.14	4503.19
576.30	4454.04
576.46	4493.83
576.62	4667.03
576.79	4737.24
576.95	4557.02
577.11	4369.78
577.27	4313.61
577.43	4381.48
577.59	4418.93
577.75	4212.96
577.92	4196.58
578.08	4163.81
578.24	4266.80
578.40	4210.62
578.56	4547.66
578.72	4510.21
578.88	4517.23
579.04	4454.04
579.21	4409.57
579.37	4510.21
579.53	4400.21
579.69	4418.93
579.85	4456.38
580.01	4545.32
580.17	4304.25
580.33	4379.14
580.49	4496.17
580.65	4512.55
580.82	4379.14
580.98	4587.45
581.14	4489.15
581.30	4313.61
581.46	4428.29
581.62	4407.23
581.78	4374.46
581.94	4538.30
582.10	4643.62
582.26	4564.04
582.42	4587.45
582.58	4526.60
582.74	4383.82
582.90	4493.83
583.06	4475.10
583.22	4554.68
583.38	4458.72
583.54	4276.16
583.70	4493.83
583.86	4482.13
584.02	4505.53
584.18	4458.72
584.34	4454.04
584.50	4435.32
584.66	4280.84
584.82	4428.29
584.98	4414.25
585.14	4313.61
585.30	4273.82
585.46	4124.02
585.62	4149.77
585.78	4081.89
585.94	4299.56
586.10	4196.58
586.26	4177.86
586.42	4315.95
586.58	4353.40
586.74	4252.75
586.90	4257.43
587.06	4369.78
587.22	4322.97
587.38	4095.94
587.54	4004.66
587.70	4030.40
587.86	3962.53
588.02	3737.84
588.18	3808.05
588.34	3485.06
588.49	3330.58
588.65	3117.59
588.81	3068.44
588.97	3080.14
589.13	3089.51
589.29	3075.46
589.45	3066.10
589.61	3136.32
589.77	3199.51
589.93	3314.20
590.08	3564.64
590.24	3349.31
590.40	3779.97
590.56	3555.27
590.72	3637.19
590.88	3517.83
591.04	3562.30
591.20	3520.17
591.35	3442.93
591.51	3506.12
591.67	3442.93
591.83	3391.44
591.99	3487.40
592.15	3576.34
592.31	3529.53
592.46	3684.00
592.62	3669.96
592.78	3674.64
592.94	3632.51
593.10	3765.92
593.26	3803.37
593.41	4011.68
593.57	3733.15
593.73	3681.66
593.89	3442.93
594.05	3328.24
594.20	3274.41
594.36	3206.53
594.52	3056.74
594.68	3227.60
594.84	3379.73
594.99	3480.38
595.15	3602.08
595.31	3550.59
595.47	3602.08
595.62	3609.11
595.78	3676.98
595.94	3742.52
596.10	3756.56
596.25	3613.79
596.41	3480.38
596.57	3569.32
596.73	3611.45
596.88	3566.98
597.04	3719.11
597.20	3740.18
597.36	3632.51
597.51	3618.47
597.67	3613.79
597.83	3721.45
