SpectraSuite Data File
++++++++++++++++++++++++++++++++++++
Date: Fri Oct 04 11:44:28 GMT-05:00 2013
User: price-jones
Dark Spectrum Present: No
Reference Spectrum Present: No
Number of Sampled Component Spectra: 1
Spectrometers: USB2+H05261
Integration Time (usec): 100000 (USB2+H05261)
Spectra Averaged: 1 (USB2+H05261)
Boxcar Smoothing: 0 (USB2+H05261)
Correct for Electrical Dark: No (USB2+H05261)
Strobe/Lamp Enabled: No (USB2+H05261)
Correct for Detector Non-linearity: No (USB2+H05261)
Correct for Stray Light: No (USB2+H05261)
Number of Pixels in Processed Spectrum: 2048
>>>>>Begin Processed Spectral Data<<<<<
365.73	0.00
365.92	0.00
366.12	0.00
366.32	0.00
366.52	0.00
366.72	0.00
366.91	0.00
367.11	0.00
367.31	0.00
367.51	0.00
367.70	0.00
367.90	0.00
368.10	0.00
368.30	0.00
368.49	0.00
368.69	0.00
368.89	0.00
369.09	0.00
369.28	0.00
369.48	0.00
369.68	0.00
369.87	0.00
370.07	0.00
370.27	56.17
370.47	70.22
370.66	245.76
370.86	194.26
371.06	297.25
371.25	351.08
371.45	198.95
371.65	308.95
371.84	161.50
372.04	280.86
372.24	287.89
372.44	283.20
372.63	248.10
372.83	358.10
373.03	173.20
373.22	220.01
373.42	217.67
373.62	264.48
373.81	313.63
374.01	283.20
374.21	248.10
374.40	191.92
374.60	292.57
374.79	297.25
374.99	313.63
375.19	414.27
375.38	341.72
375.58	379.17
375.78	353.42
375.97	320.65
376.17	376.83
376.37	355.76
376.56	369.80
376.76	374.49
376.95	346.40
377.15	308.95
377.35	416.62
377.54	376.83
377.74	367.46
377.93	397.89
378.13	360.44
378.33	402.57
378.52	369.80
378.72	327.68
378.91	313.63
379.11	351.08
379.31	311.29
379.50	234.05
379.70	360.44
379.89	407.25
380.09	374.49
380.28	400.23
380.48	402.57
380.68	353.42
380.87	362.78
381.07	374.49
381.26	372.15
381.46	325.33
381.65	325.33
381.85	388.53
382.04	264.48
382.24	308.95
382.43	259.80
382.63	308.95
382.83	276.18
383.02	208.31
383.22	248.10
383.41	283.20
383.61	304.27
383.80	322.99
384.00	397.89
384.19	348.74
384.39	393.21
384.58	355.76
384.78	393.21
384.97	390.87
385.17	372.15
385.36	337.04
385.56	360.44
385.75	315.97
385.95	411.93
386.14	407.25
386.34	409.59
386.53	386.19
386.72	351.08
386.92	325.33
387.11	425.98
387.31	423.64
387.50	358.10
387.70	372.15
387.89	365.12
388.09	428.32
388.28	348.74
388.48	416.62
388.67	437.68
388.86	454.06
389.06	393.21
389.25	550.03
389.45	517.26
389.64	503.22
389.84	428.32
390.03	470.45
390.22	496.19
390.42	514.92
390.61	512.58
390.81	566.41
391.00	580.45
391.19	592.16
391.39	521.94
391.58	526.62
391.78	470.45
391.97	468.11
392.16	409.59
392.36	507.90
392.55	465.77
392.75	374.49
392.94	269.16
393.13	355.76
393.33	341.72
393.52	381.51
393.71	390.87
393.91	341.72
394.10	468.11
394.29	545.34
394.49	580.45
394.68	608.54
394.88	653.01
395.07	610.88
395.26	582.79
395.46	550.03
395.65	571.09
395.84	414.27
396.04	472.79
396.23	400.23
396.42	330.02
396.62	365.12
396.81	397.89
397.00	411.93
397.19	531.30
397.39	540.66
397.58	589.82
397.77	664.71
397.97	650.67
398.16	657.69
398.35	711.52
398.55	739.61
398.74	798.12
398.93	840.25
399.12	678.76
399.32	751.31
399.51	791.10
399.70	704.50
399.90	821.53
400.09	781.74
400.28	732.59
400.47	779.40
400.67	840.25
400.86	816.85
401.05	905.79
401.24	755.99
401.44	751.31
401.63	802.80
401.82	777.06
402.01	842.59
402.21	1022.81
402.40	905.79
402.59	887.06
402.78	699.82
402.97	758.33
403.17	784.08
403.36	826.21
403.55	795.78
403.74	959.62
403.93	840.25
404.13	837.91
404.32	870.68
404.51	866.00
404.70	858.98
404.89	828.55
405.09	849.61
405.28	763.01
405.47	856.64
405.66	884.72
405.85	856.64
406.05	830.89
406.24	798.12
406.43	802.80
406.62	875.36
406.81	849.61
407.00	798.12
407.20	849.61
407.39	931.53
407.58	835.57
407.77	870.68
407.96	945.58
408.15	931.53
408.34	889.40
408.54	973.66
408.73	1001.75
408.92	849.61
409.11	947.92
409.30	910.47
409.49	901.11
409.68	791.10
409.87	842.59
410.07	812.17
410.26	858.98
410.45	905.79
410.64	877.70
410.83	1076.65
411.02	968.98
411.21	1060.26
411.40	917.49
411.59	999.41
411.78	959.62
411.98	1018.13
412.17	1022.81
412.36	908.13
412.55	940.90
412.74	938.55
412.93	929.19
413.12	1013.45
413.31	1027.50
413.50	976.00
413.69	1118.78
413.88	1078.99
414.07	971.32
414.26	978.34
414.45	1004.09
414.64	1057.92
414.83	1078.99
415.02	1074.31
415.22	1048.56
415.41	1104.73
415.60	1069.62
415.79	1191.33
415.98	1135.16
416.17	1118.78
416.36	1041.54
416.55	1055.58
416.74	1167.93
416.93	1109.41
417.12	1043.88
417.31	971.32
417.50	1053.24
417.69	1156.22
417.88	1060.26
418.07	1011.11
418.26	1060.26
418.45	1050.90
418.64	1104.73
418.83	1125.80
419.02	1163.25
419.21	1137.50
419.39	1034.52
419.58	1034.52
419.77	1039.20
419.96	1144.52
420.15	1186.65
420.34	1146.86
420.53	1132.82
420.72	1121.12
420.91	1130.48
421.10	1160.91
421.29	1102.39
421.48	1151.54
421.67	1247.51
421.86	1170.27
422.05	1104.73
422.24	1034.52
422.43	971.32
422.61	1050.90
422.80	1200.69
422.99	1142.18
423.18	1041.54
423.37	1100.05
423.56	1200.69
423.75	1053.24
423.94	1060.26
424.13	1027.50
424.32	1020.47
424.50	1053.24
424.69	1090.69
424.88	1090.69
425.07	1088.35
425.26	980.68
425.45	1160.91
425.64	1032.18
425.83	1057.92
426.01	1142.18
426.20	1128.14
426.39	1107.07
426.58	1050.90
426.77	1006.43
426.96	1004.09
427.15	1008.77
427.33	1036.86
427.52	1025.15
427.71	1102.39
427.90	1076.65
428.09	1081.33
428.28	1034.52
428.46	1015.79
428.65	1055.58
428.84	973.66
429.03	1107.07
429.22	882.38
429.40	858.98
429.59	835.57
429.78	840.25
429.97	730.25
430.16	821.53
430.34	795.78
430.53	737.27
430.72	788.76
430.91	858.98
431.10	1088.35
431.28	1130.48
431.47	1259.21
431.66	1296.66
431.85	1177.29
432.03	1151.54
432.22	1188.99
432.41	1069.62
432.60	1158.57
432.79	1200.69
432.97	1296.66
433.16	1193.67
433.35	999.41
433.54	1188.99
433.72	1071.97
433.91	1004.09
434.10	1160.91
434.28	1151.54
434.47	1259.21
434.66	1200.69
434.85	1109.41
435.03	1299.00
435.22	1612.63
435.41	1902.86
435.59	1961.37
435.78	1830.30
435.97	1385.60
436.16	1327.08
436.34	1287.29
436.53	1376.24
436.72	1362.19
436.90	1203.04
437.09	1188.99
437.28	1156.22
437.46	1219.42
437.65	1294.32
437.84	1158.57
438.02	1020.47
438.21	1121.12
438.40	1071.97
438.58	1170.27
438.77	1238.14
438.96	1270.91
439.14	1291.98
439.33	1313.04
439.52	1287.29
439.70	1289.64
439.89	1404.32
440.08	1315.38
440.26	1228.78
440.45	1352.83
440.63	1364.53
440.82	1378.58
441.01	1371.55
441.19	1320.06
441.38	1352.83
441.57	1476.88
441.75	1451.13
441.94	1507.30
442.12	1430.07
442.31	1411.34
442.50	1416.02
442.68	1444.11
442.87	1444.11
443.05	1430.07
443.24	1458.15
443.43	1469.86
443.61	1519.01
443.80	1476.88
443.98	1430.07
444.17	1465.18
444.35	1406.66
444.54	1430.07
444.73	1533.05
444.91	1570.50
445.10	1434.75
445.28	1284.95
445.47	1322.40
445.65	1399.64
445.84	1425.39
446.02	1362.19
446.21	1348.15
446.39	1453.47
446.58	1425.39
446.77	1448.79
446.95	1376.24
447.14	1523.69
447.32	1629.01
447.51	1589.22
447.69	1507.30
447.88	1486.24
448.06	1411.34
448.25	1425.39
448.43	1579.86
448.62	1418.36
448.80	1589.22
448.99	1565.82
449.17	1474.54
449.36	1542.41
449.54	1582.20
449.73	1556.46
449.91	1549.43
450.10	1593.90
450.28	1682.85
450.46	1619.65
450.65	1708.59
450.83	1706.25
451.02	1626.67
451.20	1511.99
451.39	1544.75
451.57	1664.12
451.76	1589.22
451.94	1575.18
452.13	1533.05
452.31	1399.64
452.49	1416.02
452.68	1486.24
452.86	1568.16
453.05	1446.45
453.23	1521.35
453.42	1446.45
453.60	1488.58
453.78	1607.95
453.97	1533.05
454.15	1577.52
454.34	1502.62
454.52	1535.39
454.70	1540.07
454.89	1467.52
455.07	1472.20
455.26	1629.01
455.44	1579.86
455.62	1563.48
455.81	1598.59
455.99	1652.42
456.17	1572.84
456.36	1582.20
456.54	1598.59
456.73	1551.78
456.91	1636.03
457.09	1629.01
457.28	1666.46
457.46	1708.59
457.64	1678.16
457.83	1605.61
458.01	1598.59
458.19	1612.63
458.38	1589.22
458.56	1591.56
458.74	1589.22
458.93	1694.55
459.11	1685.19
459.29	1579.86
459.48	1589.22
459.66	1626.67
459.84	1596.25
460.03	1799.87
460.21	1661.78
460.39	1626.67
460.57	1710.93
460.76	1746.04
460.94	1701.57
461.12	1696.89
461.31	1640.72
461.49	1612.63
461.67	1671.14
461.85	1713.27
462.04	1661.78
462.22	2146.27
462.40	1769.44
462.59	1853.70
462.77	1685.19
462.95	1654.76
463.13	1673.48
463.32	1727.32
463.50	1666.46
463.68	1654.76
463.86	1650.08
464.05	1542.41
464.23	1614.97
464.41	1764.76
464.59	1626.67
464.78	1643.06
464.96	1633.69
465.14	1696.89
465.32	1675.82
465.50	1764.76
465.69	1715.61
465.87	1746.04
466.05	1736.68
466.23	1561.14
466.41	1540.07
466.60	1626.67
466.78	1584.54
466.96	1652.42
467.14	1680.50
467.32	1706.25
467.51	1612.63
467.69	1682.85
467.87	1685.19
468.05	1703.91
468.23	1741.36
468.41	1631.35
468.60	1734.34
468.78	1713.27
468.96	1596.25
469.14	1776.47
469.32	1696.89
469.50	1549.43
469.69	1579.86
469.87	1523.69
470.05	1568.16
470.23	1629.01
470.41	1582.20
470.59	1640.72
470.77	1732.00
470.95	1542.41
471.14	1762.42
471.32	1565.82
471.50	1743.70
471.68	1762.42
471.86	1755.40
472.04	1727.32
472.22	1722.63
472.40	1682.85
472.58	1671.14
472.77	1629.01
472.95	1736.68
473.13	1764.76
473.31	1774.13
473.49	1743.70
473.67	1776.47
473.85	1767.10
474.03	1799.87
474.21	1678.16
474.39	1804.55
474.57	1884.13
474.75	1799.87
474.93	1860.73
475.12	1774.13
475.30	1795.19
475.48	1764.76
475.66	1834.98
475.84	1792.85
476.02	1764.76
476.20	1624.33
476.38	1788.17
476.56	1902.86
476.74	1804.55
476.92	1797.53
477.10	1966.05
477.28	1944.99
477.46	1966.05
477.64	1991.80
477.82	2008.18
478.00	2076.06
478.18	1881.79
478.36	2031.58
478.54	1856.04
478.72	1893.49
478.90	2073.71
479.08	2040.95
479.26	2038.61
479.44	1996.48
479.62	1977.75
479.80	2054.99
479.98	2064.35
480.16	2104.14
480.34	2050.31
480.52	2108.82
480.70	2104.14
480.88	2132.23
481.06	2143.93
481.24	2106.48
481.41	2197.76
481.59	2188.40
481.77	2174.36
481.95	2303.09
482.13	2314.79
482.31	2188.40
482.49	2197.76
482.67	2155.63
482.85	2319.47
483.03	2284.36
483.21	2333.51
483.39	2183.72
483.57	2298.41
483.74	2200.10
483.92	2143.93
484.10	2267.98
484.28	2438.84
484.46	2427.14
484.64	2438.84
484.82	2270.32
485.00	2401.39
485.18	2420.11
485.35	2260.96
485.53	2120.53
485.71	2069.03
485.89	1930.94
486.07	1935.62
486.25	2139.25
486.43	2293.72
486.61	2289.04
486.78	2223.51
486.96	2253.94
487.14	2335.85
487.32	2321.81
487.50	2373.30
487.68	2602.68
487.85	2551.18
488.03	2525.44
488.21	2565.23
488.39	2438.84
488.57	2485.65
488.75	2387.35
488.92	2787.58
489.10	2651.83
489.28	2729.06
489.46	2722.04
489.64	2677.57
489.81	2759.49
489.99	2771.19
490.17	2745.45
490.35	2834.39
490.53	2766.51
490.70	2773.53
490.88	2691.62
491.06	2722.04
491.24	2768.85
491.41	2771.19
491.59	2623.74
491.77	2654.17
491.95	2609.70
492.13	2612.04
492.30	2726.72
492.48	2850.77
492.66	3028.65
492.84	2747.79
493.01	2883.54
493.19	2750.13
493.37	2803.96
493.54	2815.66
493.72	2759.49
493.90	2960.78
494.08	2977.16
494.25	3059.08
494.43	3040.36
494.61	3098.87
494.79	3131.64
494.96	2939.71
495.14	3047.38
495.32	2827.37
495.49	2890.56
495.67	2883.54
495.85	3173.77
496.02	3080.14
496.20	3183.13
496.38	3129.30
496.55	3068.44
496.73	3183.13
496.91	3155.04
497.09	3204.19
497.26	3318.88
497.44	3260.37
497.62	3143.34
497.79	3012.27
497.97	2897.58
498.14	2815.66
498.32	2932.69
498.50	3133.98
498.67	2892.90
498.85	3225.26
499.03	3241.64
499.20	3222.92
499.38	3286.11
499.56	3159.72
499.73	3166.74
499.91	3068.44
500.08	3042.70
500.26	2935.03
500.44	2904.60
500.61	3063.76
500.79	2981.84
500.97	2991.20
501.14	3028.65
501.32	2953.76
501.49	2958.44
501.67	3007.59
501.84	2977.16
502.02	3038.02
502.20	3105.89
502.37	3098.87
502.55	2935.03
502.72	3141.00
502.90	3059.08
503.07	2878.86
503.25	3016.95
503.43	2815.66
503.60	2895.24
503.78	2848.43
503.95	2740.77
504.13	2918.65
504.30	3087.17
504.48	3110.57
504.65	3159.72
504.83	3138.66
505.01	3124.62
505.18	3166.74
505.36	3255.69
505.53	3197.17
505.71	3328.24
505.88	3321.22
506.06	3274.41
506.23	3246.32
506.41	3103.55
506.58	3229.94
506.76	3173.77
506.93	3126.96
507.11	3124.62
507.28	3068.44
507.46	3110.57
507.63	2960.78
507.81	2995.89
507.98	3045.04
508.16	3082.49
508.33	3138.66
508.50	3042.70
508.68	3325.90
508.85	3400.80
509.03	3386.76
509.20	3227.60
509.38	3323.56
509.55	3201.85
509.73	3318.88
509.90	3178.45
510.08	3262.71
510.25	3295.47
510.42	3335.26
510.60	3164.40
510.77	3330.58
510.95	3342.28
511.12	3286.11
511.30	3456.97
511.47	3346.97
511.64	3541.23
511.82	3384.41
511.99	3274.41
512.17	3276.75
512.34	3239.30
512.51	3206.53
512.69	3328.24
512.86	3248.66
513.04	3365.69
513.21	3426.54
513.38	3323.56
513.56	3194.83
513.73	3180.79
513.90	3115.25
514.08	3059.08
514.25	3187.81
514.43	3192.49
514.60	3300.16
514.77	3274.41
514.95	3248.66
515.12	3286.11
515.29	3309.52
515.47	3370.37
515.64	3391.44
515.81	3363.35
515.99	3258.03
516.16	3187.81
516.33	2794.60
516.51	2836.73
516.68	2621.40
516.85	2576.93
517.03	2785.24
517.20	2843.75
517.37	3164.40
517.54	3157.38
517.72	3126.96
517.89	2892.90
518.06	2911.63
518.24	2771.19
518.41	3077.80
518.58	3157.38
518.75	3059.08
518.93	3098.87
519.10	3131.64
519.27	3164.40
519.45	3108.23
519.62	3286.11
519.79	3276.75
519.96	3332.92
520.14	3234.62
520.31	3314.20
520.48	3243.98
520.65	3323.56
520.83	3353.99
521.00	3353.99
521.17	3468.67
521.34	3274.41
521.52	3225.26
521.69	3389.10
521.86	3466.33
522.03	3447.61
522.20	3389.10
522.38	3164.40
522.55	3131.64
522.72	3194.83
522.89	3304.84
523.07	3412.50
523.24	3361.01
523.41	3286.11
523.58	3463.99
523.75	3461.65
523.92	3424.20
524.10	3499.10
524.27	3421.86
524.44	3241.64
524.61	3426.54
524.78	3393.78
524.96	3389.10
525.13	3382.07
525.30	3405.48
525.47	3485.06
525.64	3461.65
525.81	3318.88
525.98	3424.20
526.16	3054.40
526.33	2937.37
526.50	2885.88
526.67	2909.29
526.84	2951.42
527.01	3117.59
527.18	3103.55
527.36	3164.40
527.53	3332.92
527.70	3459.31
527.87	3323.56
528.04	3218.24
528.21	3325.90
528.38	3459.31
528.55	3520.17
528.72	3644.21
528.89	3693.37
529.07	3435.91
529.24	3499.10
529.41	3365.69
529.58	3258.03
529.75	3246.32
529.92	3449.95
530.09	3456.97
530.26	3524.85
530.43	3510.80
530.60	3506.12
530.77	3517.83
530.94	3527.19
531.11	3536.55
531.28	3428.88
531.46	3468.67
531.63	3339.94
531.80	3419.52
531.97	3342.28
532.14	3386.76
532.31	3173.77
532.48	3126.96
532.65	3194.83
532.82	3199.51
532.99	3211.22
533.16	3510.80
533.33	3431.23
533.50	3431.23
533.67	3346.97
533.84	3346.97
534.01	3361.01
534.18	3344.63
534.35	3328.24
534.52	3332.92
534.69	3412.50
534.86	3417.18
535.03	3578.68
535.20	3588.04
535.37	3620.81
535.54	3604.42
535.71	3529.53
535.88	3431.23
536.05	3353.99
536.22	3393.78
536.38	3361.01
536.55	3351.65
536.72	3304.84
536.89	3286.11
537.06	3356.33
537.23	3403.14
537.40	3489.74
537.57	3426.54
537.74	3494.42
537.91	3398.46
538.08	3569.32
538.25	3616.13
538.42	3461.65
538.59	3410.16
538.75	3541.23
538.92	3534.21
539.09	3538.89
539.26	3403.14
539.43	3386.76
539.60	3398.46
539.77	3489.74
539.94	3515.48
540.11	3508.46
540.28	3403.14
540.44	3398.46
540.61	3508.46
540.78	3454.63
540.95	3735.50
541.12	3852.52
541.29	4044.45
541.46	3978.91
541.62	3948.48
541.79	3920.40
541.96	3920.40
542.13	3929.76
542.30	3906.35
542.47	3906.35
542.63	3868.91
542.80	3777.62
542.97	3789.33
543.14	3716.77
543.31	3758.90
543.48	3812.73
543.64	3995.29
543.81	3906.35
543.98	3992.95
544.15	3866.56
544.32	3658.26
544.48	3758.90
544.65	3702.73
544.82	3819.75
544.99	3882.95
545.16	3712.09
545.32	3901.67
545.49	4397.87
545.66	5172.58
545.83	5341.10
546.00	5034.49
546.16	4428.29
546.33	4114.66
546.50	3686.34
546.67	3922.74
546.83	3775.28
547.00	3604.42
547.17	3545.91
547.34	3485.06
547.50	3456.97
547.67	3536.55
547.84	3508.46
548.00	3604.42
548.17	3623.15
548.34	3538.89
548.51	3435.91
548.67	3475.70
548.84	3648.90
549.01	3555.27
549.18	3574.00
549.34	3471.01
549.51	3494.42
549.68	3499.10
549.84	3499.10
550.01	3330.58
550.18	3377.39
550.34	3480.38
550.51	3398.46
550.68	3478.04
550.84	3173.77
551.01	3400.80
551.18	3356.33
551.34	3283.77
551.51	3456.97
551.68	3489.74
551.84	3365.69
552.01	3496.76
552.18	3503.78
552.34	3281.43
552.51	3220.58
552.68	3255.69
552.84	3243.98
553.01	3255.69
553.18	3344.63
553.34	3293.13
553.51	3206.53
553.67	3241.64
553.84	3403.14
554.01	3391.44
554.17	3304.84
554.34	3316.54
554.51	3229.94
554.67	3356.33
554.84	3295.47
555.00	3220.58
555.17	3155.04
555.33	3421.86
555.50	3328.24
555.67	3255.69
555.83	3192.49
556.00	3122.27
556.16	3276.75
556.33	3056.74
556.50	3014.61
556.66	3063.76
556.83	2906.95
556.99	3056.74
557.16	3068.44
557.32	3122.27
557.49	3054.40
557.65	3148.02
557.82	3122.27
557.98	3178.45
558.15	3094.19
558.32	2928.01
558.48	3014.61
558.65	2949.08
558.81	3066.10
558.98	2890.56
559.14	3089.51
559.31	3084.83
559.47	3094.19
559.64	2991.20
559.80	2883.54
559.97	3030.99
560.13	3042.70
560.30	3201.85
560.46	3164.40
560.63	3068.44
560.79	3094.19
560.96	3145.68
561.12	2958.44
561.29	2949.08
561.45	2963.12
561.61	3073.12
561.78	3038.02
561.94	3035.67
562.11	3033.33
562.27	2925.67
562.44	3094.19
562.60	2979.50
562.77	3000.57
562.93	3075.46
563.10	3208.87
563.26	3108.23
563.42	3056.74
563.59	3040.36
563.75	3002.91
563.92	3162.06
564.08	3016.95
564.24	2956.10
564.41	2995.89
564.57	2970.14
564.74	2888.22
564.90	2911.63
565.07	2890.56
565.23	2965.46
565.39	2935.03
565.56	2995.89
565.72	2806.30
565.88	2766.51
566.05	2846.09
566.21	2939.71
566.38	2958.44
566.54	2904.60
566.70	2874.18
566.87	2986.52
567.03	2939.71
567.19	2993.55
567.36	3045.04
567.52	2958.44
567.68	2928.01
567.85	2815.66
568.01	2860.13
568.17	2794.60
568.34	2743.11
568.50	2754.81
568.66	2677.57
568.83	2773.53
568.99	2677.57
569.15	2888.22
569.32	2768.85
569.48	2729.06
569.64	2670.55
569.81	2703.32
569.97	2752.47
570.13	2801.62
570.30	2759.49
570.46	2633.10
570.62	2642.46
570.78	2576.93
570.95	2672.89
571.11	2705.66
571.27	2710.34
571.43	2656.51
571.60	2743.11
571.76	2745.45
571.92	2658.85
572.09	2764.17
572.25	2806.30
572.41	2818.00
572.57	2738.43
572.74	2801.62
572.90	2743.11
573.06	2782.90
573.22	2705.66
573.38	2799.28
573.55	2766.51
573.71	2745.45
573.87	2684.59
574.03	2764.17
574.20	2649.49
574.36	2693.96
574.52	2745.45
574.68	2635.44
574.84	2736.09
575.01	2609.70
575.17	2684.59
575.33	2677.57
575.49	2565.23
575.65	2771.19
575.82	2658.85
575.98	2736.09
576.14	2651.83
576.30	2813.32
576.46	2836.73
576.62	2876.52
576.79	3094.19
576.95	2904.60
577.11	2715.02
577.27	2619.06
577.43	2593.31
577.59	2569.91
577.75	2647.15
577.92	2520.76
578.08	2565.23
578.24	2539.48
578.40	2626.08
578.56	2794.60
578.72	2946.73
578.88	3042.70
579.04	2846.09
579.21	2792.26
579.37	2881.20
579.53	2722.04
579.69	2850.77
579.85	2698.64
580.01	2778.22
580.17	2759.49
580.33	2675.23
580.49	2729.06
580.65	2612.04
580.82	2778.22
580.98	2693.96
581.14	2780.56
581.30	2848.43
581.46	2679.91
581.62	2803.96
581.78	2766.51
581.94	2796.94
582.10	2848.43
582.26	2754.81
582.42	2813.32
582.58	2892.90
582.74	2871.84
582.90	2869.50
583.06	2836.73
583.22	2710.34
583.38	2869.50
583.54	2813.32
583.70	2810.98
583.86	2871.84
584.02	2862.48
584.18	2799.28
584.34	2686.94
584.50	2806.30
584.66	2738.43
584.82	2717.36
584.98	2729.06
585.14	2569.91
585.30	2740.77
585.46	2715.02
585.62	2614.38
585.78	2602.68
585.94	2548.84
586.10	2597.99
586.26	2605.02
586.42	2712.68
586.58	2768.85
586.74	2696.30
586.90	2729.06
587.06	2810.98
587.22	2747.79
587.38	2675.23
587.54	2672.89
587.70	2518.42
587.86	2537.14
588.02	2361.60
588.18	2312.45
588.34	2242.23
588.49	2057.33
588.65	1984.77
588.81	1942.64
588.97	2040.95
589.13	1984.77
589.29	2008.18
589.45	1900.52
589.61	1912.22
589.77	1881.79
589.93	2054.99
590.08	2167.34
590.24	2139.25
590.40	2181.38
590.56	2188.40
590.72	2207.13
590.88	2300.75
591.04	2284.36
591.20	2073.71
591.35	2218.83
591.51	2062.01
591.67	2186.06
591.83	2127.55
591.99	2188.40
592.15	2216.49
592.31	2352.24
592.46	2441.18
592.62	2480.97
592.78	2408.41
592.94	2354.58
593.10	2415.43
593.26	2478.63
593.41	2420.11
593.57	2410.75
593.73	2251.60
593.89	2209.47
594.05	2097.12
594.20	2031.58
594.36	1977.75
594.52	2010.52
594.68	1937.96
594.84	2157.97
594.99	2193.08
595.15	2204.78
595.31	2256.28
595.47	2267.98
595.62	2157.97
595.78	2279.68
595.94	2331.17
596.10	2305.43
596.25	2244.57
596.41	2195.42
596.57	2209.47
596.73	2244.57
596.88	2228.19
597.04	2310.11
597.20	2319.47
597.36	2237.55
597.51	2094.78
597.67	2260.96
597.83	2272.66
597.99	2244.57
598.14	2303.09
598.30	2331.17
598.46	2200.10
598.61	2193.08
598.77	2237.55
598.93	2312.45
