SpectraSuite Data File
++++++++++++++++++++++++++++++++++++
Date: Fri Oct 04 11:44:26 GMT-05:00 2013
User: price-jones
Dark Spectrum Present: No
Reference Spectrum Present: No
Number of Sampled Component Spectra: 1
Spectrometers: USB2+H05261
Integration Time (usec): 100000 (USB2+H05261)
Spectra Averaged: 1 (USB2+H05261)
Boxcar Smoothing: 0 (USB2+H05261)
Correct for Electrical Dark: No (USB2+H05261)
Strobe/Lamp Enabled: No (USB2+H05261)
Correct for Detector Non-linearity: No (USB2+H05261)
Correct for Stray Light: No (USB2+H05261)
Number of Pixels in Processed Spectrum: 2048
>>>>>Begin Processed Spectral Data<<<<<
365.73	37.45
365.92	37.45
366.12	37.45
366.32	0.00
366.52	0.00
366.72	30.43
366.91	0.00
367.11	0.00
367.31	0.00
367.51	0.00
367.70	0.00
367.90	0.00
368.10	0.00
368.30	0.00
368.49	0.00
368.69	0.00
368.89	0.00
369.09	0.00
369.28	0.00
369.48	0.00
369.68	0.00
369.87	0.00
370.07	14.04
370.27	49.15
370.47	18.72
370.66	245.76
370.86	299.59
371.06	348.74
371.25	414.27
371.45	334.70
371.65	383.85
371.84	330.02
372.04	301.93
372.24	337.04
372.44	355.76
372.63	372.15
372.83	339.38
373.03	351.08
373.22	308.95
373.42	311.29
373.62	358.10
373.81	456.40
374.01	381.51
374.21	365.12
374.40	372.15
374.60	465.77
374.79	374.49
374.99	421.30
375.19	458.74
375.38	456.40
375.58	437.68
375.78	367.46
375.97	416.62
376.17	470.45
376.37	414.27
376.56	479.81
376.76	472.79
376.95	433.00
377.15	475.13
377.35	582.79
377.54	566.41
377.74	545.34
377.93	573.43
378.13	540.66
378.33	561.73
378.52	507.90
378.72	498.53
378.91	528.96
379.11	470.45
379.31	456.40
379.50	468.11
379.70	491.51
379.89	540.66
380.09	482.15
380.28	517.26
380.48	535.98
380.68	437.68
380.87	538.32
381.07	468.11
381.26	531.30
381.46	397.89
381.65	444.70
381.85	402.57
382.04	351.08
382.24	442.36
382.43	360.44
382.63	255.12
382.83	388.53
383.02	449.38
383.22	463.43
383.41	360.44
383.61	402.57
383.80	414.27
384.00	435.34
384.19	538.32
384.39	440.02
384.58	514.92
384.78	463.43
384.97	559.39
385.17	444.70
385.36	388.53
385.56	461.09
385.75	528.96
385.95	510.24
386.14	540.66
386.34	531.30
386.53	484.49
386.72	409.59
386.92	571.09
387.11	493.85
387.31	503.22
387.50	440.02
387.70	550.03
387.89	458.74
388.09	540.66
388.28	507.90
388.48	503.22
388.67	559.39
388.86	594.50
389.06	627.26
389.25	608.54
389.45	669.39
389.64	620.24
389.84	554.71
390.03	601.52
390.22	695.14
390.42	699.82
390.61	697.48
390.81	755.99
391.00	706.84
391.19	814.51
391.39	732.59
391.58	676.41
391.78	704.50
391.97	638.97
392.16	603.86
392.36	592.16
392.55	550.03
392.75	458.74
392.94	313.63
393.13	304.27
393.33	423.64
393.52	451.72
393.71	559.39
393.91	566.41
394.10	594.50
394.29	645.99
394.49	678.76
394.68	802.80
394.88	798.12
395.07	837.91
395.26	800.46
395.46	802.80
395.65	765.36
395.84	634.29
396.04	699.82
396.23	507.90
396.42	433.00
396.62	397.89
396.81	505.56
397.00	514.92
397.19	655.35
397.39	713.86
397.58	891.74
397.77	894.08
397.97	901.11
398.16	889.40
398.35	959.62
398.55	943.24
398.74	971.32
398.93	992.39
399.12	980.68
399.32	973.66
399.51	999.41
399.70	1090.69
399.90	1013.45
400.09	994.73
400.28	1041.54
400.47	1022.81
400.67	1116.44
400.86	1050.90
401.05	1100.05
401.24	1151.54
401.44	1179.63
401.63	1146.86
401.82	1137.50
402.01	1083.67
402.21	1210.06
402.40	1256.87
402.59	1167.93
402.78	1036.86
402.97	1055.58
403.17	1128.14
403.36	1224.10
403.55	1196.01
403.74	1121.12
403.93	1235.80
404.13	1008.77
404.32	997.07
404.51	1172.61
404.70	1055.58
404.89	1097.71
405.09	1247.51
405.28	1158.57
405.47	1123.46
405.66	1203.04
405.85	1048.56
406.05	1128.14
406.24	1097.71
406.43	1100.05
406.62	1151.54
406.81	1179.63
407.00	1186.65
407.20	1100.05
407.39	1158.57
407.58	1111.75
407.77	1259.21
407.96	1277.93
408.15	1200.69
408.34	1256.87
408.54	1238.14
408.73	1212.40
408.92	1235.80
409.11	1203.04
409.30	1249.85
409.49	1116.44
409.68	1116.44
409.87	1076.65
410.07	1078.99
410.26	1146.86
410.45	1188.99
410.64	1287.29
410.83	1266.23
411.02	1284.95
411.21	1369.21
411.40	1331.76
411.59	1291.98
411.78	1334.11
411.98	1247.51
412.17	1296.66
412.36	1219.42
412.55	1313.04
412.74	1317.72
412.93	1437.09
413.12	1174.95
413.31	1385.60
413.50	1441.77
413.69	1390.28
413.88	1451.13
414.07	1336.45
414.26	1371.55
414.45	1423.05
414.64	1401.98
414.83	1406.66
415.02	1366.87
415.22	1376.24
415.41	1437.09
415.60	1418.36
415.79	1556.46
415.98	1533.05
416.17	1486.24
416.36	1409.00
416.55	1413.68
416.74	1418.36
416.93	1416.02
417.12	1390.28
417.31	1383.26
417.50	1394.96
417.69	1481.56
417.88	1605.61
418.07	1516.67
418.26	1423.05
418.45	1383.26
418.64	1537.73
418.83	1511.99
419.02	1572.84
419.21	1530.71
419.39	1533.05
419.58	1455.81
419.77	1348.15
419.96	1373.89
420.15	1563.48
420.34	1533.05
420.53	1549.43
420.72	1710.93
420.91	1645.40
421.10	1624.33
421.29	1629.01
421.48	1593.90
421.67	1544.75
421.86	1600.93
422.05	1556.46
422.24	1336.45
422.43	1306.02
422.61	1392.62
422.80	1481.56
422.99	1516.67
423.18	1500.28
423.37	1530.71
423.56	1373.89
423.75	1516.67
423.94	1490.92
424.13	1373.89
424.32	1458.15
424.50	1474.54
424.69	1497.94
424.88	1530.71
425.07	1533.05
425.26	1460.49
425.45	1514.33
425.64	1336.45
425.83	1514.33
426.01	1495.60
426.20	1561.14
426.39	1394.96
426.58	1399.64
426.77	1331.76
426.96	1303.68
427.15	1270.91
427.33	1366.87
427.52	1462.83
427.71	1497.94
427.90	1409.00
428.09	1437.09
428.28	1465.18
428.46	1373.89
428.65	1320.06
428.84	1348.15
429.03	1509.65
429.22	1451.13
429.40	1280.27
429.59	1186.65
429.78	1125.80
429.97	1076.65
430.16	1111.75
430.34	1011.11
430.53	1008.77
430.72	1160.91
430.91	1188.99
431.10	1350.49
431.28	1542.41
431.47	1734.34
431.66	1722.63
431.85	1556.46
432.03	1547.09
432.22	1544.75
432.41	1472.20
432.60	1607.95
432.79	1675.82
432.97	1612.63
433.16	1631.35
433.35	1509.65
433.54	1446.45
433.72	1322.40
433.91	1444.11
434.10	1467.52
434.28	1584.54
434.47	1640.72
434.66	1617.31
434.85	1633.69
435.03	1621.99
435.22	1874.77
435.41	2120.53
435.59	2129.89
435.78	1881.79
435.97	1853.70
436.16	1827.96
436.34	1764.76
436.53	1820.94
436.72	1708.59
436.90	1652.42
437.09	1610.29
437.28	1624.33
437.46	1671.14
437.65	1696.89
437.84	1645.40
438.02	1540.07
438.21	1430.07
438.40	1444.11
438.58	1626.67
438.77	1729.66
438.96	1689.87
439.14	1757.74
439.33	1832.64
439.52	1781.15
439.70	1837.32
439.89	1762.42
440.08	1799.87
440.26	1664.12
440.45	1722.63
440.63	1860.73
440.82	1820.94
441.01	1834.98
441.19	1966.05
441.38	1891.15
441.57	1881.79
441.75	1949.67
441.94	2111.16
442.12	2026.90
442.31	2062.01
442.50	1952.01
442.68	1998.82
442.87	1954.35
443.05	1921.58
443.24	1846.68
443.43	1973.07
443.61	2153.29
443.80	2064.35
443.98	1949.67
444.17	2003.50
444.35	2099.46
444.54	1914.56
444.73	2080.74
444.91	2057.33
445.10	1921.58
445.28	1842.00
445.47	1830.30
445.65	1837.32
445.84	1891.15
446.02	1886.47
446.21	1982.43
446.39	1996.48
446.58	2026.90
446.77	1961.37
446.95	1952.01
447.14	2087.76
447.32	2195.42
447.51	2129.89
447.69	2001.16
447.88	2052.65
448.06	2019.88
448.25	2143.93
448.43	2040.95
448.62	2033.93
448.80	2003.50
448.99	1884.13
449.17	2047.97
449.36	2047.97
449.54	2204.78
449.73	2092.44
449.91	2256.28
450.10	2260.96
450.28	2317.13
450.46	2293.72
450.65	2333.51
450.83	2282.02
451.02	2174.36
451.20	2141.59
451.39	2172.02
451.57	2136.91
451.76	2122.87
451.94	2113.50
452.13	2153.29
452.31	1982.43
452.49	1923.92
452.68	2038.61
452.86	1998.82
453.05	2008.18
453.23	1959.03
453.42	1994.14
453.60	2022.22
453.78	2087.76
453.97	2031.58
454.15	1984.77
454.34	2047.97
454.52	1996.48
454.70	1987.11
454.89	2087.76
455.07	2085.42
455.26	2202.44
455.44	2181.38
455.62	2104.14
455.81	2181.38
455.99	2193.08
456.17	2216.49
456.36	2155.63
456.54	2113.50
456.73	2267.98
456.91	2207.13
457.09	2120.53
457.28	2455.22
457.46	2246.91
457.64	2239.89
457.83	2186.06
458.01	2106.48
458.19	2143.93
458.38	2188.40
458.56	2307.77
458.74	2256.28
458.93	2272.66
459.11	2181.38
459.29	2214.15
459.48	2253.94
459.66	2260.96
459.84	2162.66
460.03	2267.98
460.21	2195.42
460.39	2195.42
460.57	2286.70
460.76	2366.28
460.94	2277.34
461.12	2289.04
461.31	2356.92
461.49	2370.96
461.67	2293.72
461.85	2321.81
462.04	2249.25
462.22	2752.47
462.40	2410.75
462.59	2335.85
462.77	2270.32
462.95	2349.90
463.13	2225.85
463.32	2253.94
463.50	2349.90
463.68	2209.47
463.86	2361.60
464.05	2193.08
464.23	2200.10
464.41	2190.74
464.59	2136.91
464.78	2277.34
464.96	2235.21
465.14	2134.57
465.32	2328.83
465.50	2312.45
465.69	2363.94
465.87	2342.88
466.05	2326.49
466.23	2174.36
466.41	2162.66
466.60	2153.29
466.78	2139.25
466.96	2214.15
467.14	2176.70
467.32	2202.44
467.51	2244.57
467.69	2221.17
467.87	2157.97
468.05	2331.17
468.23	2232.87
468.41	2289.04
468.60	2305.43
468.78	2225.85
468.96	2139.25
469.14	2406.07
469.32	2188.40
469.50	2167.34
469.69	2303.09
469.87	2111.16
470.05	2277.34
470.23	2136.91
470.41	2167.34
470.59	2090.10
470.77	2200.10
470.95	2183.72
471.14	2202.44
471.32	2204.78
471.50	2413.09
471.68	2420.11
471.86	2483.31
472.04	2331.17
472.22	2406.07
472.40	2303.09
472.58	2321.81
472.77	2242.23
472.95	2314.79
473.13	2401.39
473.31	2392.03
473.49	2197.76
473.67	2333.51
473.85	2420.11
474.03	2534.80
474.21	2569.91
474.39	2469.27
474.57	2574.59
474.75	2506.71
474.93	2436.50
475.12	2380.32
475.30	2429.48
475.48	2361.60
475.66	2452.88
475.84	2427.14
476.02	2560.55
476.20	2427.14
476.38	2469.27
476.56	2462.24
476.74	2492.67
476.92	2562.89
477.10	2476.29
477.28	2649.49
477.46	2656.51
477.64	2656.51
477.82	2609.70
478.00	2658.85
478.18	2616.72
478.36	2686.94
478.54	2605.02
478.72	2635.44
478.90	2684.59
479.08	2759.49
479.26	2956.10
479.44	2736.09
479.62	2862.48
479.80	2719.70
479.98	2904.60
480.16	2836.73
480.34	2832.05
480.52	2857.79
480.70	2918.65
480.88	2860.13
481.06	2801.62
481.24	2876.52
481.41	2876.52
481.59	3019.29
481.77	2972.48
481.95	3021.63
482.13	3045.04
482.31	2984.18
482.49	2974.82
482.67	3059.08
482.85	2991.20
483.03	2988.86
483.21	3096.53
483.39	3122.27
483.57	2991.20
483.74	3056.74
483.92	3070.78
484.10	3143.34
484.28	3253.34
484.46	3185.47
484.64	3276.75
484.82	3066.10
485.00	3150.36
485.18	3030.99
485.35	3035.67
485.53	2761.83
485.71	2581.61
485.89	2480.97
486.07	2518.42
486.25	2789.92
486.43	2911.63
486.61	2998.23
486.78	2960.78
486.96	3070.78
487.14	3110.57
487.32	3283.77
487.50	3316.54
487.68	3335.26
487.85	3543.57
488.03	3433.57
488.21	3562.30
488.39	3339.94
488.57	3232.28
488.75	3206.53
488.92	3625.49
489.10	3494.42
489.28	3728.47
489.46	3684.00
489.64	3742.52
489.81	3763.58
489.99	3861.88
490.17	3499.10
490.35	3763.58
490.53	3754.22
490.70	3597.40
490.88	3536.55
491.06	3756.56
491.24	3728.47
491.41	3660.60
491.59	3442.93
491.77	3428.88
491.95	3590.38
492.13	3489.74
492.30	3796.35
492.48	3822.09
492.66	4032.74
492.84	3960.19
493.01	3983.59
493.19	3915.72
493.37	3817.41
493.54	3894.65
493.72	3880.61
493.90	3904.01
494.08	3955.51
494.25	4156.79
494.43	4201.26
494.61	4112.32
494.79	4252.75
494.96	4138.07
495.14	3962.53
495.32	3882.95
495.49	3744.86
495.67	3836.14
495.85	4203.60
496.02	4184.88
496.20	4205.94
496.38	4187.22
496.55	4072.53
496.73	4215.30
496.91	4308.93
497.09	4308.93
497.26	4276.16
497.44	4297.22
497.62	4245.73
497.79	4102.96
497.97	4016.36
498.14	3826.78
498.32	4079.55
498.50	4285.52
498.67	4348.72
498.85	4175.52
499.03	4166.15
499.20	4184.88
499.38	4374.46
499.56	4318.29
499.73	4327.65
499.91	4131.05
500.08	4201.26
500.26	3962.53
500.44	3983.59
500.61	4290.20
500.79	4173.18
500.97	4102.96
501.14	4091.26
501.32	3875.93
501.49	4060.83
501.67	3925.08
501.84	4135.73
502.02	4114.66
502.20	4243.39
502.37	4250.41
502.55	4095.94
502.72	4313.61
502.90	4365.10
503.07	4212.96
503.25	4088.92
503.43	3999.98
503.60	3880.61
503.78	3735.50
503.95	3740.18
504.13	3997.64
504.30	4299.56
504.48	4297.22
504.65	4234.03
504.83	4372.12
505.01	4400.21
505.18	4421.27
505.36	4388.50
505.53	4430.63
505.71	4430.63
505.88	4655.33
506.06	4596.81
506.23	4514.89
506.41	4395.53
506.58	4219.99
506.76	4418.93
506.93	4428.29
507.11	4367.44
507.28	4241.05
507.46	4149.77
507.63	4273.82
507.81	4257.43
507.98	4138.07
508.16	4147.43
508.33	4341.69
508.50	4393.19
508.68	4674.05
508.85	4690.43
509.03	4645.96
509.20	4648.30
509.38	4620.22
509.55	4486.81
509.73	4454.04
509.90	4671.71
510.08	4578.09
510.25	4456.38
510.42	4475.10
510.60	4484.47
510.77	4465.74
510.95	4542.98
511.12	4582.77
511.30	4765.33
511.47	4814.48
511.64	4760.65
511.82	4650.64
511.99	4554.68
512.17	4514.89
512.34	4519.57
512.51	4383.82
512.69	4599.15
512.86	4486.81
513.04	4519.57
513.21	4704.48
513.38	4554.68
513.56	4550.00
513.73	4339.35
513.90	4454.04
514.08	4407.23
514.25	4402.55
514.43	4503.19
514.60	4432.97
514.77	4610.86
514.95	4676.39
515.12	4575.75
515.29	4713.84
515.47	4667.03
515.64	4739.58
515.81	4622.56
515.99	4702.14
516.16	4308.93
516.33	4224.67
516.51	3859.54
516.68	3728.47
516.85	3613.79
517.03	3648.90
517.20	3943.80
517.37	4283.18
517.54	4407.23
517.72	4442.34
517.89	4208.28
518.06	3889.97
518.24	3904.01
518.41	4145.09
518.58	4360.42
518.75	4346.37
518.93	4351.06
519.10	4552.34
519.27	4615.54
519.45	4461.06
519.62	4575.75
519.79	4589.79
519.96	4657.67
520.14	4716.18
520.31	4493.83
520.48	4484.47
520.65	4461.06
520.83	4589.79
521.00	4795.76
521.17	4795.76
521.34	4561.70
521.52	4624.90
521.69	4725.54
521.86	4683.41
522.03	4847.25
522.20	4674.05
522.38	4463.40
522.55	4311.27
522.72	4435.32
522.89	4580.43
523.07	4629.58
523.24	4624.90
523.41	4699.80
523.58	4601.49
523.75	4765.33
523.92	4877.68
524.10	4833.21
524.27	4891.72
524.44	4758.31
524.61	4823.84
524.78	4587.45
524.96	4793.42
525.13	4744.27
525.30	4755.97
525.47	4753.63
525.64	4683.41
525.81	4802.78
525.98	4599.15
526.16	4269.14
526.33	4030.40
526.50	4016.36
526.67	3988.27
526.84	4133.39
527.01	4297.22
527.18	4332.33
527.36	4589.79
527.53	4603.83
527.70	4840.23
527.87	4657.67
528.04	4620.22
528.21	4662.35
528.38	4889.38
528.55	4819.16
528.72	5060.24
528.89	4983.00
529.07	4905.76
529.24	4833.21
529.41	4798.10
529.58	4692.77
529.75	4482.13
529.92	4674.05
530.09	4830.87
530.26	4755.97
530.43	4924.49
530.60	5025.13
530.77	5088.32
530.94	5039.17
531.11	4926.83
531.28	4924.49
531.46	4795.76
531.63	4901.08
531.80	4830.87
531.97	4671.71
532.14	4784.06
532.31	4575.75
532.48	4329.99
532.65	4327.65
532.82	4435.32
532.99	4718.52
533.16	4683.41
533.33	4856.61
533.50	5062.58
533.67	4851.93
533.84	4671.71
534.01	4648.30
534.18	4737.24
534.35	4732.56
534.52	4748.95
534.69	4800.44
534.86	4880.02
535.03	4887.04
535.20	4957.25
535.37	4975.98
535.54	5093.01
535.71	5018.11
535.88	4889.38
536.05	4924.49
536.22	4821.50
536.38	4650.64
536.55	4746.61
536.72	4608.51
536.89	4554.68
537.06	4573.41
537.23	4856.61
537.40	4805.12
537.57	4835.55
537.74	4870.65
537.91	4926.83
538.08	4819.16
538.25	4952.57
538.42	4861.29
538.59	4880.02
538.75	4854.27
538.92	4777.03
539.09	4798.10
539.26	4704.48
539.43	4641.28
539.60	4568.73
539.77	4737.24
539.94	4713.84
540.11	4631.92
540.28	4514.89
540.44	4447.02
540.61	4615.54
540.78	4578.09
540.95	4648.30
541.12	4681.07
541.29	4746.61
541.46	4926.83
541.62	4919.81
541.79	4973.64
541.96	4908.10
542.13	4938.53
542.30	5048.54
542.47	5006.41
542.63	4791.08
542.80	4851.93
542.97	4868.31
543.14	4713.84
543.31	4882.36
543.48	4835.55
543.64	5109.39
543.81	5118.75
543.98	5027.47
544.15	4905.76
544.32	4842.57
544.48	4800.44
544.65	4844.91
544.82	4990.02
544.99	4940.87
545.16	4777.03
545.32	4821.50
545.49	5205.35
545.66	5628.99
545.83	5818.57
546.00	5488.56
546.16	5146.84
546.33	4990.02
546.50	4741.93
546.67	4912.78
546.83	4798.10
547.00	4903.42
547.17	4727.88
547.34	4667.03
547.50	4491.49
547.67	4709.16
547.84	4681.07
548.00	4809.80
548.17	4788.74
548.34	4816.82
548.51	4990.02
548.67	4755.97
548.84	4868.31
549.01	4830.87
549.18	4667.03
549.34	4592.13
549.51	4716.18
549.68	4774.69
549.84	4690.43
550.01	4613.20
550.18	4767.67
550.34	4683.41
550.51	4542.98
550.68	4669.37
550.84	4449.36
551.01	4568.73
551.18	4447.02
551.34	4615.54
551.51	4608.51
551.68	4746.61
551.84	4814.48
552.01	4617.88
552.18	4737.24
552.34	4671.71
552.51	4512.55
552.68	4395.53
552.84	4442.34
553.01	4606.17
553.18	4437.66
553.34	4507.87
553.51	4582.77
553.67	4697.46
553.84	4709.16
554.01	4741.93
554.17	4744.27
554.34	4624.90
554.51	4585.11
554.67	4596.81
554.84	4587.45
555.00	4589.79
555.17	4599.15
555.33	4709.16
555.50	4582.77
555.67	4587.45
555.83	4491.49
556.00	4493.83
556.16	4603.83
556.33	4564.04
556.50	4374.46
556.66	4468.08
556.83	4470.42
556.99	4451.70
557.16	4470.42
557.32	4278.50
557.49	4486.81
557.65	4360.42
557.82	4402.55
557.98	4430.63
558.15	4388.50
558.32	4456.38
558.48	4119.34
558.65	4212.96
558.81	4236.37
558.98	4276.16
559.14	4348.72
559.31	4283.18
559.47	4337.01
559.64	4234.03
559.80	4135.73
559.97	4292.54
560.13	4278.50
560.30	4400.21
560.46	4559.36
560.63	4447.02
560.79	4645.96
560.96	4470.42
561.12	4346.37
561.29	4124.02
561.45	4224.67
561.61	4203.60
561.78	4447.02
561.94	4344.03
562.11	4227.01
562.27	4311.27
562.44	4208.28
562.60	4372.12
562.77	4383.82
562.93	4568.73
563.10	4510.21
563.26	4297.22
563.42	4259.78
563.59	4322.97
563.75	4266.80
563.92	4318.29
564.08	4276.16
564.24	4353.40
564.41	4262.12
564.57	4219.99
564.74	4376.80
564.90	4252.75
565.07	4243.39
565.23	4250.41
565.39	4198.92
565.56	4161.47
565.72	3999.98
565.88	4100.62
566.05	4135.73
566.21	4046.79
566.38	4065.51
566.54	4065.51
566.70	4133.39
566.87	4269.14
567.03	4217.65
567.19	4283.18
567.36	4227.01
567.52	4287.86
567.68	4344.03
567.85	4039.76
568.01	3995.29
568.17	3845.50
568.34	3871.25
568.50	3691.02
568.66	3803.37
568.83	3885.29
568.99	3922.74
569.15	3925.08
569.32	3992.95
569.48	3765.92
569.64	3878.27
569.81	3892.31
569.97	3962.53
570.13	3899.33
570.30	3808.05
570.46	3758.90
570.62	3786.99
570.78	3763.58
570.95	3707.41
571.11	3669.96
571.27	3887.63
571.43	3831.46
571.60	3822.09
571.76	3875.93
571.92	3911.04
572.09	3934.44
572.25	3964.87
572.41	3840.82
572.57	3873.59
572.74	3962.53
572.90	3957.85
573.06	3955.51
573.22	3932.10
573.38	3836.14
573.55	3894.65
573.71	4077.21
573.87	3850.18
574.03	3730.81
574.20	3859.54
574.36	3637.19
574.52	3838.48
574.68	3719.11
574.84	3859.54
575.01	3744.86
575.17	3616.13
575.33	3735.50
575.49	3875.93
575.65	3932.10
575.82	3826.78
575.98	3866.56
576.14	3786.99
576.30	3857.20
576.46	3985.93
576.62	3904.01
576.79	3992.95
576.95	3899.33
577.11	3712.09
577.27	3812.73
577.43	3716.77
577.59	3866.56
577.75	3824.44
577.92	3672.30
578.08	3599.74
578.24	3578.68
578.40	3740.18
578.56	3836.14
578.72	3911.04
578.88	3906.35
579.04	3822.09
579.21	3749.54
579.37	3908.69
579.53	3770.60
579.69	3808.05
579.85	3904.01
580.01	3901.67
580.17	3864.22
580.33	3913.38
580.49	3817.41
580.65	3796.35
580.82	3819.75
580.98	3920.40
581.14	3702.73
581.30	3782.31
581.46	3892.31
581.62	3911.04
581.78	3669.96
581.94	3824.44
582.10	3838.48
582.26	3978.91
582.42	3840.82
582.58	3997.64
582.74	3878.27
582.90	3894.65
583.06	3880.61
583.22	3801.03
583.38	3810.39
583.54	3749.54
583.70	3896.99
583.86	3850.18
584.02	3969.55
584.18	3892.31
584.34	3803.37
584.50	3915.72
584.66	3946.14
584.82	3822.09
584.98	3691.02
585.14	3871.25
585.30	3712.09
585.46	3712.09
585.62	3623.15
585.78	3695.71
585.94	3674.64
586.10	3796.35
586.26	3700.39
586.42	3742.52
586.58	3735.50
586.74	3604.42
586.90	3595.06
587.06	3812.73
587.22	3634.85
587.38	3578.68
587.54	3592.72
587.70	3492.08
587.86	3368.03
588.02	3316.54
588.18	3110.57
588.34	3068.44
588.49	2871.84
588.65	2752.47
588.81	2647.15
588.97	2684.59
589.13	2703.32
589.29	2738.43
589.45	2588.63
589.61	2761.83
589.77	2764.17
589.93	2862.48
590.08	2850.77
590.24	3005.25
590.40	3141.00
590.56	3014.61
590.72	3089.51
590.88	2986.52
591.04	2970.14
591.20	3019.29
591.35	3122.27
591.51	2939.71
591.67	3005.25
591.83	2960.78
591.99	2986.52
592.15	2937.37
592.31	3052.06
592.46	3105.89
592.62	3150.36
592.78	3314.20
592.94	3197.17
593.10	3084.83
593.26	3211.22
593.41	3311.86
593.57	3403.14
593.73	3101.21
593.89	3026.31
594.05	2771.19
594.20	2871.84
594.36	2860.13
594.52	2860.13
594.68	2771.19
594.84	2932.69
594.99	3002.91
595.15	2977.16
595.31	3215.90
595.47	3054.40
595.62	3005.25
595.78	3131.64
595.94	3220.58
596.10	3304.84
596.25	3225.26
596.41	3087.17
596.57	3047.38
596.73	3108.23
596.88	3077.80
597.04	3152.70
597.20	3171.43
597.36	3131.64
597.51	3169.09
597.67	3162.06
597.83	3150.36
597.99	3101.21
